%OpenBCI Raw EXG Data
%Number of channels = 4
%Sample Rate = 200 Hz
%Board = OpenBCI_GUI$BoardGanglionBLE
Sample Index, EXG Channel 0, EXG Channel 1, EXG Channel 2, EXG Channel 3, Accel Channel 0, Accel Channel 1, Accel Channel 2, Other, Other, Other, Other, Other, Timestamp, Other, Timestamp (Formatted)
2.0, -43.85780678037554, -106.42633303906769, -98.38928803429008, -131.70805673953146, -0.06400000303983688, 0.0, 0.0, 0.0, 0.0, 0.0, 0.0, 0.0, 1.706216996764174E9, 0.0, 2024-01-25 13:09:56.764
2.0, -15.182123870123178, -77.69829152943566, -246.855836475268, -176.0071717146784, -0.06400000303983688, 0.0, 0.0, 0.0, 0.0, 0.0, 0.0, 0.0, 1.706216996764174E9, 0.0, 2024-01-25 13:09:56.764
3.0, 178.89998433040455, 139.91526719229296, -383.77918370300904, -336.1104188677855, -0.06400000303983688, 0.0, 0.0, 0.0, 0.0, 0.0, 0.0, 0.0, 1.706216996767888E9, 0.0, 2024-01-25 13:09:56.767
3.0, 307.9115732018836, 275.9952669800259, -196.0399458273314, -257.0676333042793, -0.06400000303983688, 0.0, 0.0, 0.0, 0.0, 0.0, 0.0, 0.0, 1.706216996767888E9, 0.0, 2024-01-25 13:09:56.767
4.0, 505.241784513928, 440.2385833840817, -144.48355498816818, -107.73903792351484, -0.06400000303983688, 0.0, 0.0, 0.0, 0.0, 0.0, 0.0, 0.0, 1.706216996773504E9, 0.0, 2024-01-25 13:09:56.773
4.0, 445.0911035765894, 425.8418385046534, -160.36504015000537, -114.5176065932028, -0.06400000303983688, 0.0, 0.0, 0.0, 0.0, 0.0, 0.0, 0.0, 1.706216996773504E9, 0.0, 2024-01-25 13:09:56.773
5.0, 207.93095773644745, 240.3371908525005, -268.1358672231436, -292.86408573016524, -0.06400000303983688, 0.0, 0.0, 0.0, 0.0, 0.0, 0.0, 0.0, 1.706216996778278E9, 0.0, 2024-01-25 13:09:56.778
5.0, 0.923755289055407, 436.79600547486916, -105.26883400278166, -97.27666779747233, -0.06400000303983688, 0.0, 0.0, 0.0, 0.0, 0.0, 0.0, 0.0, 1.706216996778278E9, 0.0, 2024-01-25 13:09:56.778
6.0, -126.78260849788785, 297.9297802201472, 139.1354980515316, -236.15037285210565, -0.06400000303983688, 0.0, 0.0, 0.0, 0.0, 0.0, 0.0, 0.0, 1.706216996785137E9, 0.0, 2024-01-25 13:09:56.785
6.0, 24.230811812914908, 505.9953743549995, 5.282608687411994, -1.1163601367734373, -0.06400000303983688, 0.0, 0.0, 0.0, 0.0, 0.0, 0.0, 0.0, 1.706216996785137E9, 0.0, 2024-01-25 13:09:56.785
7.0, -60.23482868634164, 424.6749897184782, -64.54506338527426, -109.64451695093885, -0.06400000303983688, 0.0, 0.0, 0.0, 0.0, 0.0, 0.0, 0.0, 1.706216996794131E9, 0.0, 2024-01-25 13:09:56.794
7.0, -15.286841068882495, 368.91682127909735, -277.7343204594217, -188.42550951754674, -0.06400000303983688, 0.0, 0.0, 0.0, 0.0, 0.0, 0.0, 0.0, 1.706216996794131E9, 0.0, 2024-01-25 13:09:56.794
8.0, 159.34778736205772, 144.61819138657302, -371.18881050217897, -340.48423186596483, -0.06400000303983688, 0.0, 0.0, 0.0, 0.0, 0.0, 0.0, 0.0, 1.70621699682516E9, 0.0, 2024-01-25 13:09:56.825
8.0, 310.3537278729491, 294.3899649120867, -218.09600581601262, -221.2861404782161, -0.06400000303983688, 0.0, 0.0, 0.0, 0.0, 0.0, 0.0, 0.0, 1.70621699682516E9, 0.0, 2024-01-25 13:09:56.825
9.0, 513.3985063172877, 461.47560528246686, -156.6101805944927, -76.22103104693815, -0.06400000303983688, 0.0, 0.0, 0.0, 0.0, 0.0, 0.0, 0.0, 1.706216996831498E9, 0.0, 2024-01-25 13:09:56.831
9.0, 487.74840247118846, 425.73899125587195, -177.0805230019614, -88.70294714905322, -0.06400000303983688, 0.0, 0.0, 0.0, 0.0, 0.0, 0.0, 0.0, 1.706216996831498E9, 0.0, 2024-01-25 13:09:56.831
10.0, 688.1172824972309, 200.72604047181085, -271.97861442761496, -305.36844123201445, -0.06400000303983688, 0.0, 1.0240000486373901, 0.0, 0.0, 0.0, 0.0, 0.0, 1.70621699683776E9, 0.0, 2024-01-25 13:09:56.837
10.0, 502.588325495366, 429.93141910620034, -89.80995753593743, -74.16969592124224, -0.06400000303983688, 0.0, 1.0240000486373901, 0.0, 0.0, 0.0, 0.0, 0.0, 1.70621699683776E9, 0.0, 2024-01-25 13:09:56.837
11.0, 358.5535585018806, 293.12587872706354, 114.88037688890472, -273.00147706549615, -0.06400000303983688, -0.0800000037997961, 1.0240000486373901, 0.0, 0.0, 0.0, 0.0, 0.0, 1.706216996853496E9, 0.0, 2024-01-25 13:09:56.853
11.0, 466.5768288220279, 472.8916498972103, -40.802308516576886, -509.6716960114427, -0.06400000303983688, -0.0800000037997961, 1.0240000486373901, 0.0, 0.0, 0.0, 0.0, 0.0, 1.706216996853496E9, 0.0, 2024-01-25 13:09:56.853
12.0, 446.1868942636065, 418.2030928451568, -114.201585046947, -602.9934196057729, -0.06400000303983688, -0.0800000037997961, 1.0240000486373901, 0.0, 0.0, 0.0, 0.0, 0.0, 1.706216996859174E9, 0.0, 2024-01-25 13:09:56.859
12.0, 475.8611304620281, 400.54328525438905, -257.69780644681305, -674.8443775544874, -0.06400000303983688, -0.0800000037997961, 1.0240000486373901, 0.0, 0.0, 0.0, 0.0, 0.0, 1.706216996859174E9, 0.0, 2024-01-25 13:09:56.859
13.0, 645.9218612471595, 163.8394072088413, -386.1614999747835, -859.1634769206867, -0.06400000303983688, -0.0800000037997961, 1.0240000486373901, 0.0, 0.0, 0.0, 0.0, 0.0, 1.706216996862898E9, 0.0, 2024-01-25 13:09:56.862
13.0, 793.7975054951385, 307.32814880879596, -220.25205814046785, -708.7447007028386, -0.06400000303983688, -0.0800000037997961, 1.0240000486373901, 0.0, 0.0, 0.0, 0.0, 0.0, 1.706216996862898E9, 0.0, 2024-01-25 13:09:56.862
14.0, 989.8486710223369, 426.32989544887096, -168.23939950671047, -603.7862783963792, -0.06400000303983688, -0.0800000037997961, 1.0240000486373901, 0.0, 0.0, 0.0, 0.0, 0.0, 1.706216996868186E9, 0.0, 2024-01-25 13:09:56.868
14.0, 878.4763202918693, 392.8409612956457, -223.46837210236117, -610.374112168327, -0.06400000303983688, -0.0800000037997961, 1.0240000486373901, 0.0, 0.0, 0.0, 0.0, 0.0, 1.706216996868186E9, 0.0, 2024-01-25 13:09:56.868
15.0, 666.1603298573755, 196.98801046609879, -310.2658402239904, -793.5936809475534, -0.06400000303983688, -0.0800000037997961, 1.0240000486373901, 0.0, 0.0, 0.0, 0.0, 0.0, 1.706216996873258E9, 0.0, 2024-01-25 13:09:56.873
15.0, 496.75782146444544, 428.08577847806737, -79.89735270338133, -572.3168902192265, -0.06400000303983688, -0.0800000037997961, 1.0240000486373901, 0.0, 0.0, 0.0, 0.0, 0.0, 1.706216996873258E9, 0.0, 2024-01-25 13:09:56.873
16.0, 355.7822926347144, 279.65662903664634, 122.20123105216771, -770.9616763656959, -0.06400000303983688, -0.0800000037997961, 1.0240000486373901, 0.0, 0.0, 0.0, 0.0, 0.0, 1.706216996882149E9, 0.0, 2024-01-25 13:09:56.882
16.0, 470.4289257763885, 454.69142676284537, -52.682100725825876, -1004.778351645451, -0.06400000303983688, -0.0800000037997961, 1.0240000486373901, 0.0, 0.0, 0.0, 0.0, 0.0, 1.706216996882149E9, 0.0, 2024-01-25 13:09:56.882
17.0, 471.28349291626364, 396.8688335479237, -74.51189676718786, -1076.0159660014324, -0.06400000303983688, -0.0800000037997961, 1.0240000486373901, 0.0, 0.0, 0.0, 0.0, 0.0, 1.706216996897811E9, 0.0, 2024-01-25 13:09:56.897
17.0, 452.9280639337376, 411.76672502141446, -257.05267370445654, -1177.2288785022683, -0.06400000303983688, -0.0800000037997961, 1.0240000486373901, 0.0, 0.0, 0.0, 0.0, 0.0, 1.706216996897811E9, 0.0, 2024-01-25 13:09:56.897
18.0, 617.0460936892778, 617.3153664860874, -434.7184910494834, -1357.924014811404, -0.06400000303983688, -0.0800000037997961, 1.0240000486373901, 0.0, 0.0, 0.0, 0.0, 0.0, 1.706216996904138E9, 0.0, 2024-01-25 13:09:56.904
18.0, 819.3896408919245, 798.2928652418777, -207.66542483959347, -1213.0103713283315, -0.06400000303983688, -0.0800000037997961, 1.0240000486373901, 0.0, 0.0, 0.0, 0.0, 0.0, 1.706216996904138E9, 0.0, 2024-01-25 13:09:56.904
19.0, 1012.1496944581158, 950.4151658895425, -132.521484979894, -1088.9522799481638, -0.06400000303983688, -0.0800000037997961, 1.0240000486373901, 0.0, 0.0, 0.0, 0.0, 0.0, 1.706216996928516E9, 0.0, 2024-01-25 13:09:56.928
19.0, 927.5587673103437, 880.4435076685622, -185.45041910279542, -1104.2839998165146, -0.06400000303983688, -0.0800000037997961, 1.0240000486373901, 0.0, 0.0, 0.0, 0.0, 0.0, 1.706216996928516E9, 0.0, 2024-01-25 13:09:56.928
20.0, 686.524085116107, 686.6699412143789, -309.4150129840709, -1319.7751653133892, -0.06400000303983688, -0.0800000037997961, 1.0240000486373901, 0.0, 0.0, 0.0, 0.0, 0.0, 1.706216996937273E9, 0.0, 2024-01-25 13:09:56.937
20.0, 494.00525509705767, 918.6652852157131, -94.06596368551254, -1081.6576050845906, -0.06400000303983688, -0.0800000037997961, 1.0240000486373901, 0.0, 0.0, 0.0, 0.0, 0.0, 1.706216996937273E9, 0.0, 2024-01-25 13:09:56.937
21.0, 339.7680410244502, 774.1630307277665, 115.22444768482819, -1271.9063158305362, -0.06400000303983688, -0.0800000037997961, 1.0240000486373901, 0.0, 0.0, 0.0, 0.0, 0.0, 1.706216996944158E9, 0.0, 2024-01-25 13:09:56.944
21.0, 455.6413613515906, 939.4666087692603, -88.3027778537944, -1512.3687933315523, -0.06400000303983688, -0.0800000037997961, 1.0240000486373901, 0.0, 0.0, 0.0, 0.0, 0.0, 1.706216996944158E9, 0.0, 2024-01-25 13:09:56.944
22.0, 443.4866864955984, 919.5179824056104, -58.64350125519559, -1548.686961801257, -0.06400000303983688, -0.0800000037997961, 1.0240000486373901, 0.0, 0.0, 0.0, 0.0, 0.0, 1.706216996952146E9, 0.0, 2024-01-25 13:09:56.952
22.0, 457.071873084642, 888.611449171789, -233.40154638467357, -1642.711786587257, -0.06400000303983688, -0.0800000037997961, 1.0240000486373901, 0.0, 0.0, 0.0, 0.0, 0.0, 1.706216996952146E9, 0.0, 2024-01-25 13:09:56.952
23.0, 568.7153665618971, 1061.6491403216496, -469.28638633992523, -1877.71027025301, -0.06400000303983688, -0.0800000037997961, 1.0240000486373901, 0.0, 0.0, 0.0, 0.0, 0.0, 1.706216996958186E9, 0.0, 2024-01-25 13:09:56.958
23.0, 776.8482788959518, 1292.7038994841278, -674.8630770542659, -1714.0298087922856, -0.06400000303983688, -0.0800000037997961, 1.0240000486373901, 0.0, 0.0, 0.0, 0.0, 0.0, 1.706216996958186E9, 0.0, 2024-01-25 13:09:56.958
24.0, 1008.6416682996787, 1408.7698246589862, -647.60481622722, -1575.7226985809393, -0.06400000303983688, -0.0800000037997961, 1.0240000486373901, 0.0, 0.0, 0.0, 0.0, 0.0, 1.706216996966173E9, 0.0, 2024-01-25 13:09:56.966
24.0, 865.2295946488157, 1354.041998657398, -726.3315802444704, -1627.2416904205456, -0.06400000303983688, -0.0800000037997961, 1.0240000486373901, 0.0, 0.0, 0.0, 0.0, 0.0, 1.706216996966173E9, 0.0, 2024-01-25 13:09:56.966
25.0, 694.5162513214163, 1205.6932570650242, -802.7583057889715, -1783.0216132248752, -0.06400000303983688, -0.0800000037997961, 1.0240000486373901, 0.0, 0.0, 0.0, 0.0, 0.0, 1.706216996971251E9, 0.0, 2024-01-25 13:09:56.971
25.0, 489.502415550407, 1411.124091681093, -599.8182445433922, -1557.6197128454223, -0.06400000303983688, -0.0800000037997961, 1.0240000486373901, 0.0, 0.0, 0.0, 0.0, 0.0, 1.706216996971251E9, 0.0, 2024-01-25 13:09:56.971
26.0, 315.9486182066612, 1252.1259849648923, -400.5245857546106, -1779.3135024188086, -0.06400000303983688, -0.0800000037997961, 1.0240000486373901, 0.0, 0.0, 0.0, 0.0, 0.0, 1.706216996988508E9, 0.0, 2024-01-25 13:09:56.988
26.0, 427.68560918280855, 1425.6872621085495, -556.7009379542433, -2014.5775189814158, -0.06400000303983688, -0.0800000037997961, 1.0240000486373901, 0.0, 0.0, 0.0, 0.0, 0.0, 1.706216996988508E9, 0.0, 2024-01-25 13:09:56.988
27.0, 462.8537584161386, 1386.0331028783694, -584.4584754253738, -2041.276664765086, -0.06400000303983688, -0.0800000037997961, 1.0240000486373901, 0.0, 0.0, 0.0, 0.0, 0.0, 1.706216996995617E9, 0.0, 2024-01-25 13:09:56.995
27.0, 464.36654794821516, 1374.0392437204719, -752.604377433192, -2152.822920843493, -0.06400000303983688, -0.0800000037997961, 1.0240000486373901, 0.0, 0.0, 0.0, 0.0, 0.0, 1.706216996995617E9, 0.0, 2024-01-25 13:09:56.995
28.0, 549.0977213443257, 1534.2041992228478, -956.4719338677824, -2370.9843749087304, -0.06400000303983688, -0.0800000037997961, 1.0240000486373901, 0.0, 0.0, 0.0, 0.0, 0.0, 1.706216997003148E9, 0.0, 2024-01-25 13:09:57.003
28.0, 311.2195147126913, 1770.7079926207662, -1176.544476810377, -2181.083474858664, -0.06400000303983688, -0.0800000037997961, 1.0240000486373901, 0.0, 0.0, 0.0, 0.0, 0.0, 1.706216997003148E9, 0.0, 2024-01-25 13:09:57.003
29.0, 516.6466094288044, 1904.8638138812967, -1108.498867066577, -2054.06338271359, -0.06400000303983688, -0.0800000037997961, 1.0240000486373901, 0.0, 0.0, 0.0, 0.0, 0.0, 1.706216997016497E9, 0.0, 2024-01-25 13:09:57.016
29.0, 376.4396300399676, 1804.6662842184305, -1223.6522566522472, -2143.7592733008787, -0.06400000303983688, -0.0800000037997961, 1.0240000486373901, 0.0, 0.0, 0.0, 0.0, 0.0, 1.706216997016497E9, 0.0, 2024-01-25 13:09:57.016
30.0, 184.21064226748422, 1690.4142105220817, -1285.7140264669433, -2273.8460834096186, -0.06400000303983688, -0.0800000037997961, 1.0240000486373901, 0.0, 0.0, 0.0, 0.0, 0.0, 1.706216997021259E9, 0.0, 2024-01-25 13:09:57.021
30.0, 1.4828703324310482, 1899.491447594948, -1075.2866855100729, -2046.753748250194, -0.06400000303983688, -0.0800000037997961, 1.0240000486373901, 0.0, 0.0, 0.0, 0.0, 0.0, 1.706216997021259E9, 0.0, 2024-01-25 13:09:57.021
31.0, -190.47123479330912, 1698.5653224755079, -893.5817762129009, -1809.496365011204, -0.06400000303983688, -0.0800000037997961, 1.0240000486373901, 0.0, 0.0, 0.0, 0.0, 0.0, 1.706216997030882E9, 0.0, 2024-01-25 13:09:57.030
31.0, -35.833851425442845, 1914.1032367218286, -1060.342045287136, -2022.220004540868, -0.06400000303983688, -0.0800000037997961, 1.0240000486373901, 0.0, 0.0, 0.0, 0.0, 0.0, 1.706216997030882E9, 0.0, 2024-01-25 13:09:57.030
32.0, -38.96040778839961, 1872.9680771091953, -1073.0128263370134, -2063.3925631530583, -0.06400000303983688, -0.0800000037997961, 1.0240000486373901, 0.0, 0.0, 0.0, 0.0, 0.0, 1.706216997049167E9, 0.0, 2024-01-25 13:09:57.049
32.0, -64.94149278057739, 1878.0412513990887, -1246.6601211796515, -2174.680766134523, -0.06400000303983688, -0.0800000037997961, 1.0240000486373901, 0.0, 0.0, 0.0, 0.0, 0.0, 1.706216997049167E9, 0.0, 2024-01-25 13:09:57.049
33.0, 76.92039233865216, 2019.4319091239013, -1462.828208568506, -2386.533008974511, -0.06400000303983688, -0.0800000037997961, 1.0240000486373901, 0.0, 0.0, 0.0, 0.0, 0.0, 1.706216997054136E9, 0.0, 2024-01-25 13:09:57.054
33.0, -153.4443552820012, 1808.4323634738103, -1682.3248069179244, -2175.2024821783416, -0.06400000303983688, -0.0800000037997961, 1.0240000486373901, 0.0, 0.0, 0.0, 0.0, 0.0, 1.706216997054136E9, 0.0, 2024-01-25 13:09:57.054
34.0, 42.58811074541882, 1956.829723765608, -1593.4703938206658, -2031.7230903282762, -0.06400000303983688, -0.0800000037997961, 1.0240000486373901, 0.0, 0.0, 0.0, 0.0, 0.0, 1.706216997063151E9, 0.0, 2024-01-25 13:09:57.063
34.0, -94.51475168019533, 1819.4538486432284, -1708.9940335019492, -2151.910385254305, -0.06400000303983688, -0.0800000037997961, 1.0240000486373901, 0.0, 0.0, 0.0, 0.0, 0.0, 1.706216997063151E9, 0.0, 2024-01-25 13:09:57.063
35.0, -285.2702188701369, 1669.3361343718134, -1783.4386120699346, -2294.937249209732, -0.06400000303983688, -0.0800000037997961, 1.0240000486373901, 0.0, 0.0, 0.0, 0.0, 0.0, 1.70621699709349E9, 0.0, 2024-01-25 13:09:57.093
35.0, -466.92463951790705, 1446.1763040157966, -2028.3384808683768, -2503.934078433551, -0.06400000303983688, -0.0800000037997961, 1.0240000486373901, 0.0, 0.0, 0.0, 0.0, 0.0, 1.70621699709349E9, 0.0, 2024-01-25 13:09:57.093
36.0, -233.45577493403107, 1211.8491323920898, -1881.1154491626658, -2290.137087616604, -0.06400000303983688, -0.0800000037997961, 1.0240000486373901, 0.0, 0.0, 0.0, 0.0, 0.0, 1.706216997100489E9, 0.0, 2024-01-25 13:09:57.100
36.0, -47.85575983300805, 1433.80845486233, -2037.1833442635834, -2499.868807181716, -0.06400000303983688, -0.0800000037997961, 1.0240000486373901, 0.0, 0.0, 0.0, 0.0, 0.0, 1.706216997100489E9, 0.0, 2024-01-25 13:09:57.100
37.0, -23.750234668608755, 1411.2643379294313, -2043.6384115871042, -2556.068283815868, -0.06400000303983688, -0.0800000037997961, 1.0240000486373901, 0.0, 0.0, 0.0, 0.0, 0.0, 1.706216997106155E9, 0.0, 2024-01-25 13:09:57.106
37.0, -43.078037639614195, 1351.7924488340504, -2240.615202353336, -2651.746144382283, -0.06400000303983688, -0.0800000037997961, 1.0240000486373901, 0.0, 0.0, 0.0, 0.0, 0.0, 1.706216997106155E9, 0.0, 2024-01-25 13:09:57.106
38.0, 89.03018839517608, 1541.016426992137, -2465.085867643822, -2871.033308334183, -0.06400000303983688, -0.0800000037997961, 1.0240000486373901, 0.0, 0.0, 0.0, 0.0, 0.0, 1.706216997111155E9, 0.0, 2024-01-25 13:09:57.111
38.0, 326.12488598609343, 1321.4562503434718, -2642.474932392128, -2653.0794187164865, -0.06400000303983688, -0.0800000037997961, 1.0240000486373901, 0.0, 0.0, 0.0, 0.0, 0.0, 1.706216997111155E9, 0.0, 2024-01-25 13:09:57.111
39.0, 546.3283254271373, 1433.2362501691096, -2578.5245130998082, -2537.1780491396785, -0.06400000303983688, -0.0800000037997961, 1.0240000486373901, 0.0, 0.0, 0.0, 0.0, 0.0, 1.706216997117128E9, 0.0, 2024-01-25 13:09:57.117
39.0, 391.8012691079639, 1333.1808367045596, -2690.293293225579, -2623.261196369771, -0.06400000303983688, -0.0800000037997961, 1.0240000486373901, 0.0, 0.0, 0.0, 0.0, 0.0, 1.706216997117128E9, 0.0, 2024-01-25 13:09:57.117
40.0, 184.7510578110814, 1197.0204290677793, -2770.4262596261688, -2785.24561320059, -0.06400000303983688, -0.0800000037997961, 1.0240000486373901, 0.0, 0.0, 0.0, 0.0, 0.0, 1.706216997124256E9, 0.0, 2024-01-25 13:09:57.124
40.0, 55.8030472388491, 1437.512825768441, -2997.292330838274, -3001.32207304053, -0.06400000303983688, -0.0800000037997961, 1.0240000486373901, 0.0, 0.0, 0.0, 0.0, 0.0, 1.706216997124256E9, 0.0, 2024-01-25 13:09:57.124
41.0, 298.17287371726707, 1212.0866160392761, -2848.4873214513063, -2774.828121874016, -0.06400000303983688, -0.0800000037997961, 1.0240000486373901, 0.0, 0.0, 0.0, 0.0, 0.0, 1.706216997138144E9, 0.0, 2024-01-25 13:09:57.138
41.0, 416.3985911165364, 1380.4195130448788, -3015.988090716768, -2538.331808276009, -0.06400000303983688, -0.0800000037997961, 1.0240000486373901, 0.0, 0.0, 0.0, 0.0, 0.0, 1.706216997138144E9, 0.0, 2024-01-25 13:09:57.138
42.0, 491.13862178102136, 1442.010055465158, -2974.7463439553976, -2495.971831427887, -0.06400000303983688, -0.0800000037997961, 1.0240000486373901, 0.0, 0.0, 0.0, 0.0, 0.0, 1.70621699715518E9, 0.0, 2024-01-25 13:09:57.155
42.0, 462.7789604170248, 1381.5807519811206, -3193.6127691622823, -2635.5673371739686, -0.06400000303983688, -0.0800000037997961, 1.0240000486373901, 0.0, 0.0, 0.0, 0.0, 0.0, 1.70621699715518E9, 0.0, 2024-01-25 13:09:57.155
43.0, 555.2666863212362, 1522.3431065133773, -2951.3869288321584, -2395.462020118721, -0.06400000303983688, -0.0800000037997961, 1.0240000486373901, 0.0, 0.0, 0.0, 0.0, 0.0, 1.706216997158117E9, 0.0, 2024-01-25 13:09:57.158
43.0, 320.18218495650217, 1322.3613061327487, -3112.024981678929, -2635.658964722883, -0.06400000303983688, -0.0800000037997961, 1.0240000486373901, 0.0, 0.0, 0.0, 0.0, 0.0, 1.706216997158117E9, 0.0, 2024-01-25 13:09:57.158
44.0, 544.3499183505774, 1449.8638453721069, -3048.153100285679, -2523.7181491991505, -0.06400000303983688, -0.0800000037997961, 1.0240000486373901, 0.0, 0.0, 0.0, 0.0, 0.0, 1.706216997169472E9, 0.0, 2024-01-25 13:09:57.169
44.0, 404.3486334593035, 1356.454234128818, -3159.6002490152605, -2600.331869741436, -0.06400000303983688, -0.0800000037997961, 1.0240000486373901, 0.0, 0.0, 0.0, 0.0, 0.0, 1.706216997169472E9, 0.0, 2024-01-25 13:09:57.169
45.0, 229.24838748387992, 1209.9230839149095, -3232.9677363960072, -2751.6650514984503, -0.06400000303983688, -0.0800000037997961, 1.0240000486373901, 0.0, 0.0, 0.0, 0.0, 0.0, 1.706216997175309E9, 0.0, 2024-01-25 13:09:57.175
45.0, 45.7614158578217, 1454.8472620630637, -2988.1557552465238, -2988.056647897698, -0.06400000303983688, -0.0800000037997961, 1.0240000486373901, 0.0, 0.0, 0.0, 0.0, 0.0, 1.706216997175309E9, 0.0, 2024-01-25 13:09:57.175
46.0, -168.47127330396324, 1238.5688476255164, -2839.59009945672, -3215.966151197441, -0.06400000303983688, -0.0800000037997961, 1.0240000486373901, 0.0, 0.0, 0.0, 0.0, 0.0, 1.706216997182474E9, 0.0, 2024-01-25 13:09:57.182
46.0, -34.436998791992664, 1392.877119797282, -3040.1141853309236, -3002.937709821388, -0.06400000303983688, -0.0800000037997961, 1.0240000486373901, 0.0, 0.0, 0.0, 0.0, 0.0, 1.706216997182474E9, 0.0, 2024-01-25 13:09:57.182
47.0, 36.02832622313872, 1437.6119331172667, -2986.0595413213596, -2983.181688305456, -0.06400000303983688, -0.0800000037997961, 1.0240000486373901, 0.0, 0.0, 0.0, 0.0, 0.0, 1.70621699719917E9, 0.0, 2024-01-25 13:09:57.199
47.0, -47.913728282321244, 1363.9022448905744, -3220.4315917445347, -3139.7226807507686, -0.06400000303983688, -0.0800000037997961, 1.0240000486373901, 0.0, 0.0, 0.0, 0.0, 0.0, 1.70621699719917E9, 0.0, 2024-01-25 13:09:57.199
48.0, 68.69635233609006, 1492.78667716356, -3437.433676823508, -2905.90039562108, -0.06400000303983688, -0.0800000037997961, 1.0240000486373901, 0.0, 0.0, 0.0, 0.0, 0.0, 1.706216997207152E9, 0.0, 2024-01-25 13:09:57.207
48.0, -85.8905423823744, 1329.919643943198, -3563.7955465763807, -3095.204781628214, -0.06400000303983688, -0.0800000037997961, 1.0240000486373901, 0.0, 0.0, 0.0, 0.0, 0.0, 1.706216997207152E9, 0.0, 2024-01-25 13:09:57.207
49.0, 59.8627086407505, 1436.8302940265276, -3557.832276097033, -3017.3120153010823, -0.06400000303983688, -0.0800000037997961, 1.0240000486373901, 0.0, 0.0, 0.0, 0.0, 0.0, 1.706216997215146E9, 0.0, 2024-01-25 13:09:57.215
49.0, -125.42128491401672, 1326.8417062796652, -3695.0884744208306, -3139.780649200082, -0.06400000303983688, -0.0800000037997961, 1.0240000486373901, 0.0, 0.0, 0.0, 0.0, 0.0, 1.706216997215146E9, 0.0, 2024-01-25 13:09:57.215
50.0, -284.46614037966356, 1209.6687707179226, -3719.1042419862933, -3243.3964474224485, -0.06400000303983688, -0.0800000037997961, 1.0240000486373901, 0.0, 0.0, 0.0, 0.0, 0.0, 1.706216997228238E9, 0.0, 2024-01-25 13:09:57.228
50.0, -458.0535968230106, 1440.0035991389304, -3478.9409564817324, -3487.2491442332976, -0.06400000303983688, -0.0800000037997961, 1.0240000486373901, 0.0, 0.0, 0.0, 0.0, 0.0, 1.706216997228238E9, 0.0, 2024-01-25 13:09:57.228
51.0, -213.4697495708242, 1204.68161412701, -3322.207359188702, -3265.9349545054138, -0.06400000303983688, -0.0800000037997961, 1.0240000486373901, 0.0, 0.0, 0.0, 0.0, 0.0, 1.706216997233175E9, 0.0, 2024-01-25 13:09:57.233
51.0, -59.774820991791785, 1397.3201209446415, -3537.526489287615, -3022.474947189912, -0.06400000303983688, -0.0800000037997961, 1.0240000486373901, 0.0, 0.0, 0.0, 0.0, 0.0, 1.706216997233175E9, 0.0, 2024-01-25 13:09:57.233
52.0, 13.573966889176518, 1427.622660335619, -3482.5929687884636, -3039.0539236934856, -0.06400000303983688, -0.0800000037997961, 1.0240000486373901, 0.0, 0.0, 0.0, 0.0, 0.0, 1.706216997259161E9, 0.0, 2024-01-25 13:09:57.259
52.0, 6.23254327615723, 1392.744353348855, -3696.3207714562304, -3111.1666746390983, -0.06400000303983688, -0.0800000037997961, 1.0240000486373901, 0.0, 0.0, 0.0, 0.0, 0.0, 1.706216997259161E9, 0.0, 2024-01-25 13:09:57.259
53.0, 48.246579378377646, 1508.789709073957, -3451.245127359871, -2901.7958554197103, -0.06400000303983688, -0.0800000037997961, 1.0240000486373901, 0.0, 0.0, 0.0, 0.0, 0.0, 1.706216997264524E9, 0.0, 2024-01-25 13:09:57.264
53.0, -128.89939187280834, 1342.4221294950694, -3586.7398328045383, -3115.5442275372334, -0.06400000303983688, -0.0800000037997961, 1.0240000486373901, 0.0, 0.0, 0.0, 0.0, 0.0, 1.706216997264524E9, 0.0, 2024-01-25 13:09:57.264
54.0, 89.86792598525062, 1466.7195744724013, -3516.839232682716, -2994.362119222991, -0.06400000303983688, -0.0800000037997961, 1.0240000486373901, 0.0, 0.0, 0.0, 0.0, 0.0, 1.706216997273157E9, 0.0, 2024-01-25 13:09:57.273
54.0, 322.29522843146697, 1305.2961426349357, -3717.0865659601986, -3153.332176689524, -0.06400000303983688, -0.0800000037997961, 1.0240000486373901, 0.0, 0.0, 0.0, 0.0, 0.0, 1.706216997273157E9, 0.0, 2024-01-25 13:09:57.273
55.0, 242.69332782458514, 1215.742368245963, -3698.712437477894, -3232.2160165049136, -0.06400000303983688, -0.0800000037997961, 1.0240000486373901, 0.0, 0.0, 0.0, 0.0, 0.0, 1.706216997277239E9, 0.0, 2024-01-25 13:09:57.277
55.0, 71.40964975394309, 1454.832302463241, -3466.3954620803706, -3447.7539307512343, -0.06400000303983688, -0.0800000037997961, 1.0240000486373901, 0.0, 0.0, 0.0, 0.0, 0.0, 1.706216997277239E9, 0.0, 2024-01-25 13:09:57.277
56.0, 267.4720349810086, 1698.8963036215864, -3363.0713760545477, -3280.088605887722, -0.06400000303983688, -0.0800000037997961, 1.0240000486373901, 0.0, 0.0, 0.0, 0.0, 0.0, 1.706216997287149E9, 0.0, 2024-01-25 13:09:57.287
56.0, 439.1820616465993, 1923.4847757606767, -3492.7467971681617, -3464.5909603517503, -0.06400000303983688, -0.0800000037997961, 1.0240000486373901, 0.0, 0.0, 0.0, 0.0, 0.0, 1.706216997287149E9, 0.0, 2024-01-25 13:09:57.287
57.0, 526.8958052573726, 1959.6327787823975, -3458.6781785218045, -3478.3949310882017, -0.06400000303983688, -0.0800000037997961, 1.0240000486373901, 0.0, 0.0, 0.0, 0.0, 0.0, 1.706216997292816E9, 0.0, 2024-01-25 13:09:57.292
57.0, 499.50851788185537, 1902.8274383554235, -3665.4722066717222, -3590.520871659741, -0.06400000303983688, -0.0800000037997961, 1.0240000486373901, 0.0, 0.0, 0.0, 0.0, 0.0, 1.706216997292816E9, 0.0, 2024-01-25 13:09:57.292
58.0, 540.748394693248, 2009.5006047915667, -3459.3064817143604, -3375.3532075090334, -0.06400000303983688, -0.0800000037997961, 1.0240000486373901, 0.0, 0.0, 0.0, 0.0, 0.0, 1.706216997319145E9, 0.0, 2024-01-25 13:09:57.319
58.0, 345.632204154972, 1827.0589352031238, -3604.8876973395236, -3143.7150239534676, -0.06400000303983688, -0.0800000037997961, 1.0240000486373901, 0.0, 0.0, 0.0, 0.0, 0.0, 1.706216997319145E9, 0.0, 2024-01-25 13:09:57.319
59.0, 104.39743731310591, 1965.994348607026, -3503.358763292432, -2979.770899545867, -0.06400000303983688, -0.0800000037997961, 1.0240000486373901, 0.0, 0.0, 0.0, 0.0, 0.0, 1.706216997327146E9, 0.0, 2024-01-25 13:09:57.327
59.0, 332.53133461019024, 1753.4689237750135, -3743.6940841949545, -3171.1434502284974, -0.06400000303983688, -0.0800000037997961, 1.0240000486373901, 0.0, 0.0, 0.0, 0.0, 0.0, 1.706216997327146E9, 0.0, 2024-01-25 13:09:57.327
60.0, 234.37953022308648, 1694.9189200187102, -3722.9525990406983, -3217.9127691243775, -0.06400000303983688, -0.0800000037997961, 1.0240000486373901, 0.0, 0.0, 0.0, 0.0, 0.0, 1.706216997330481E9, 0.0, 2024-01-25 13:09:57.330
60.0, 104.55264316126704, 1495.197042685002, -3932.342117759865, -3443.971021946054, -0.06400000303983688, -0.0800000037997961, 1.0240000486373901, 0.0, 0.0, 0.0, 0.0, 0.0, 1.706216997330481E9, 0.0, 2024-01-25 13:09:57.330
61.0, 260.5906190625392, 1678.218396766577, -3880.718408721499, -3305.862126432359, -0.06400000303983688, -0.0800000037997961, 1.0240000486373901, 0.0, 0.0, 0.0, 0.0, 0.0, 1.706216997335162E9, 0.0, 2024-01-25 13:09:57.335
61.0, 437.50284656649455, 1898.3863071580417, -3982.1650649695657, -3477.91061404394, -0.06400000303983688, -0.0800000037997961, 1.0240000486373901, 0.0, 0.0, 0.0, 0.0, 0.0, 1.706216997335162E9, 0.0, 2024-01-25 13:09:57.335
62.0, 497.7470250027254, 1947.9455914208665, -3942.774568686262, -3495.8509141313843, -0.06400000303983688, -0.0800000037997961, 1.0240000486373901, 0.0, 0.0, 0.0, 0.0, 0.0, 1.706216997350175E9, 0.0, 2024-01-25 13:09:57.350
62.0, 430.3914268007502, 1848.800843595527, -3721.60623505665, -3620.2287669577636, -0.06400000303983688, -0.0800000037997961, 1.0240000486373901, 0.0, 0.0, 0.0, 0.0, 0.0, 1.706216997350175E9, 0.0, 2024-01-25 13:09:57.350
63.0, 546.7023154227063, 1979.9890542412177, -3938.9449111316353, -3397.6523609948345, -0.06400000303983688, -0.0800000037997961, 1.0240000486373901, 0.0, 0.0, 0.0, 0.0, 0.0, 1.706216997355777E9, 0.0, 2024-01-25 13:09:57.355
63.0, 333.67200409667566, 1810.5323172989301, -4097.656915501226, -3619.826727712527, -0.06400000303983688, -0.0800000037997961, 1.0240000486373901, 0.0, 0.0, 0.0, 0.0, 0.0, 1.706216997355777E9, 0.0, 2024-01-25 13:09:57.355
64.0, 568.3039775667712, 1972.8271458260715, -4013.275422750972, -3473.4900522963144, -0.06400000303983688, -0.0800000037997961, 1.0240000486373901, 0.0, 0.0, 0.0, 0.0, 0.0, 1.706216997362161E9, 0.0, 2024-01-25 13:09:57.362
64.0, 342.5168674918823, 1754.1196663673036, -4227.188350466546, -3680.1849730974063, -0.06400000303983688, -0.0800000037997961, 1.0240000486373901, 0.0, 0.0, 0.0, 0.0, 0.0, 1.706216997362161E9, 0.0, 2024-01-25 13:09:57.362
65.0, 195.37237368524075, 1673.754826169461, -4238.926026477478, -3762.0719525772147, -0.06400000303983688, -0.0800000037997961, 1.0240000486373901, 0.0, 0.0, 0.0, 0.0, 0.0, 1.706216997378256E9, 0.0, 2024-01-25 13:09:57.378
65.0, 94.0809232853353, 1531.7096859524027, -4412.651859219186, -3898.46236406127, -0.06400000303983688, -0.0800000037997961, 1.0240000486373901, 0.0, 0.0, 0.0, 0.0, 0.0, 1.706216997378256E9, 0.0, 2024-01-25 13:09:57.378
66.0, 255.63151172129437, 1712.9171885554679, -4382.068827331532, -3797.1466043116525, -0.06400000303983688, -0.0800000037997961, 1.0240000486373901, 0.0, 0.0, 0.0, 0.0, 0.0, 1.706216997383267E9, 0.0, 2024-01-25 13:09:57.383
66.0, 401.48387009324506, 1892.8325557238422, -4513.191589727998, -4009.0175466514193, -0.06400000303983688, -0.0800000037997961, 1.0240000486373901, 0.0, 0.0, 0.0, 0.0, 0.0, 1.706216997383267E9, 0.0, 2024-01-25 13:09:57.383
67.0, 528.9265709333122, 1999.0962031148374, -4384.032274808269, -3929.337108145468, -0.06400000303983688, -0.0800000037997961, 1.0240000486373901, 0.0, 0.0, 0.0, 0.0, 0.0, 1.706216997392143E9, 0.0, 2024-01-25 13:09:57.392
67.0, 461.3989373333752, 1863.7529636183754, -4185.269681813195, -4103.399531883188, -0.06400000303983688, -0.0800000037997961, 1.0240000486373901, 0.0, 0.0, 0.0, 0.0, 0.0, 1.706216997392143E9, 0.0, 2024-01-25 13:09:57.392
68.0, 518.5408687563613, 1987.341697554104, -3964.3911904301494, -3903.9656268460676, -0.06400000303983688, -0.0800000037997961, 1.0240000486373901, 0.0, 0.0, 0.0, 0.0, 0.0, 1.706216997422162E9, 0.0, 2024-01-25 13:09:57.422
68.0, 336.57042656233534, 1826.4156724107452, -4072.9212171942927, -4092.8623637580313, -0.06400000303983688, -0.0800000037997961, 1.0240000486373901, 0.0, 0.0, 0.0, 0.0, 0.0, 1.706216997422162E9, 0.0, 2024-01-25 13:09:57.422
69.0, 550.4309956785291, 1967.4267302900553, -4018.092413893901, -3969.2642800724134, -0.06400000303983688, -0.0800000037997961, 1.0240000486373901, 0.0, 0.0, 0.0, 0.0, 0.0, 1.706216997429163E9, 0.0, 2024-01-25 13:09:57.429
69.0, 343.61265817889944, 1795.7410129741766, -4232.63364480203, -4145.939023929182, -0.06400000303983688, -0.0800000037997961, 1.0240000486373901, 0.0, 0.0, 0.0, 0.0, 0.0, 1.706216997429163E9, 0.0, 2024-01-25 13:09:57.429
70.0, 190.72741794027388, 1671.3650300977752, -4234.954252724536, -4228.476746001281, -0.06400000303983688, -0.0800000037997961, 1.0240000486373901, 0.0, 0.0, 0.0, 0.0, 0.0, 1.706216997435241E9, 0.0, 2024-01-25 13:09:57.435
70.0, 120.48835687246174, 1487.9229372711852, -4418.493582949974, -4415.153852289543, -0.06400000303983688, -0.0800000037997961, 1.0240000486373901, 0.0, 0.0, 0.0, 0.0, 0.0, 1.706216997435241E9, 0.0, 2024-01-25 13:09:57.435
71.0, 262.0790992449038, 1657.9256996070035, -4365.976037822198, -4267.6802472868, -0.06400000303983688, -0.0800000037997961, 1.0240000486373901, 0.0, 0.0, 0.0, 0.0, 0.0, 1.706216997439863E9, 0.0, 2024-01-25 13:09:57.439
71.0, 400.33572080684826, 1866.361543837469, -4518.330212267116, -4494.0433019548655, -0.06400000303983688, -0.0800000037997961, 1.0240000486373901, 0.0, 0.0, 0.0, 0.0, 0.0, 1.706216997439863E9, 0.0, 2024-01-25 13:09:57.439
72.0, 539.8620384037495, 1969.9062839606777, -4403.236661080737, -4436.278677189257, -0.06400000303983688, -0.0800000037997961, 1.0240000486373901, 0.0, 0.0, 0.0, 0.0, 0.0, 1.706216997448146E9, 0.0, 2024-01-25 13:09:57.448
72.0, 459.3980908570811, 1835.4494007537141, -4185.785788007081, -4598.904486862477, -0.06400000303983688, -0.0800000037997961, 1.0240000486373901, 0.0, 0.0, 0.0, 0.0, 0.0, 1.706216997448146E9, 0.0, 2024-01-25 13:09:57.448
73.0, 493.4872789531946, 1935.5366033678874, -3997.612721736543, -4418.484233200084, -0.06400000303983688, -0.0800000037997961, 1.0240000486373901, 0.0, 0.0, 0.0, 0.0, 0.0, 1.706216997452784E9, 0.0, 2024-01-25 13:09:57.452
73.0, 412.4006380639039, 1820.8843603762798, -4029.957246503327, -4548.320470011793, -0.06400000303983688, -0.0800000037997961, 1.0240000486373901, 0.0, 0.0, 0.0, 0.0, 0.0, 1.706216997452784E9, 0.0, 2024-01-25 13:09:57.452
74.0, 618.3139197742566, 1998.0116321276873, -4000.7804169990122, -4432.927726828959, -0.06400000303983688, -0.0800000037997961, 1.0240000486373901, 0.0, 0.0, 0.0, 0.0, 0.0, 1.706216997485117E9, 0.0, 2024-01-25 13:09:57.485
74.0, 812.6840002713725, 1767.3402127106674, -4206.544102711137, -4661.306587573141, -0.06400000303983688, -0.0800000037997961, 1.0240000486373901, 0.0, 0.0, 0.0, 0.0, 0.0, 1.706216997485117E9, 0.0, 2024-01-25 13:09:57.485
75.0, 711.3233617222868, 1705.787069289945, -4205.683925721329, -4719.082432038616, -0.06400000303983688, -0.0800000037997961, 1.0240000486373901, 0.0, 0.0, 0.0, 0.0, 0.0, 1.706216997491243E9, 0.0, 2024-01-25 13:09:57.491
75.0, 592.8882099254988, 1516.3947956338525, -4405.9518284485675, -4898.268518715631, -0.06400000303983688, -0.0800000037997961, 1.0240000486373901, 0.0, 0.0, 0.0, 0.0, 0.0, 1.706216997491243E9, 0.0, 2024-01-25 13:09:57.491
76.0, 744.6103412779048, 1683.2897011064924, -4357.383617674001, -4762.392343475483, -0.06400000303983688, -0.0800000037997961, 1.0240000486373901, 0.0, 0.0, 0.0, 0.0, 0.0, 1.706216997498141E9, 0.0, 2024-01-25 13:09:57.498
76.0, 897.7854237630963, 1900.1627596369945, -4519.9364992980845, -4971.125509752426, -0.06400000303983688, -0.0800000037997961, 1.0240000486373901, 0.0, 0.0, 0.0, 0.0, 0.0, 1.706216997498141E9, 0.0, 2024-01-25 13:09:57.498
77.0, 1000.1371358004399, 1953.7461762521416, -4426.339893057011, -4924.909696049988, -0.06400000303983688, -0.0800000037997961, 1.0240000486373901, 0.0, 0.0, 0.0, 0.0, 0.0, 1.706216997502153E9, 0.0, 2024-01-25 13:09:57.502
77.0, 989.7102947239764, 1891.3609050912783, -4644.940785367042, -5054.044701620005, -0.06400000303983688, -0.0800000037997961, 1.0240000486373901, 0.0, 0.0, 0.0, 0.0, 0.0, 1.706216997502153E9, 0.0, 2024-01-25 13:09:57.502
78.0, 988.4892173884436, 1939.220404824242, -4480.482424715534, -4927.422908820212, -0.06400000303983688, -0.0800000037997961, 1.0240000486373901, 0.0, 0.0, 0.0, 0.0, 0.0, 1.706216997508868E9, 0.0, 2024-01-25 13:09:57.508
78.0, 874.6073937877081, 1846.3568189744838, -4539.866426161956, -5050.826517708134, -0.06400000303983688, -0.0800000037997961, 1.0240000486373901, 0.0, 0.0, 0.0, 0.0, 0.0, 1.706216997508868E9, 0.0, 2024-01-25 13:09:57.508
79.0, 1117.0931571647525, 2020.002243867144, -4460.013952258043, -4919.561639113352, -0.06400000303983688, -0.0800000037997961, 1.0240000486373901, 0.0, 0.0, 0.0, 0.0, 0.0, 1.706216997514108E9, 0.0, 2024-01-25 13:09:57.514
79.0, 1254.2427683398128, 2190.0891539519653, -4252.2400703197345, -4703.601116172038, -0.06400000303983688, -0.0800000037997961, 1.0240000486373901, 0.0, 0.0, 0.0, 0.0, 0.0, 1.706216997514108E9, 0.0, 2024-01-25 13:09:57.514
80.0, 1212.6083320830949, 2213.4710084749386, -4194.279100806452, -4687.605564061552, -0.06400000303983688, -0.0800000037997961, 1.0240000486373901, 0.0, 0.0, 0.0, 0.0, 0.0, 1.706216997544292E9, 0.0, 2024-01-25 13:09:57.544
80.0, 1095.8411756665446, 2005.1473612431437, -4424.668157776818, -4883.209811544046, -0.06400000303983688, -0.0800000037997961, 1.0240000486373901, 0.0, 0.0, 0.0, 0.0, 0.0, 1.706216997544292E9, 0.0, 2024-01-25 13:09:57.544
81.0, 1207.793210890144, 2140.9524783841334, -4404.564325565007, -4798.933035992552, -0.06400000303983688, -0.09600000455975533, 1.0240000486373901, 0.0, 0.0, 0.0, 0.0, 0.0, 1.706216997549469E9, 0.0, 2024-01-25 13:09:57.549
81.0, 1392.94817789644, 2369.2733706790023, -4510.87285175547, -4975.499322750606, -0.06400000303983688, -0.09600000455975533, 1.0240000486373901, 0.0, 0.0, 0.0, 0.0, 0.0, 1.706216997549469E9, 0.0, 2024-01-25 13:09:57.549
82.0, 1512.9484778246842, 2472.492739506066, -4412.3320977729745, -4910.722385568079, -0.06400000303983688, -0.09600000455975533, 1.0240000486373901, 0.0, 0.0, 0.0, 0.0, 0.0, 1.70621699755412E9, 0.0, 2024-01-25 13:09:57.554
82.0, 1480.2355729122646, 2389.3285841913894, -4633.408803853672, -5049.281939026434, -0.06400000303983688, -0.09600000455975533, 1.0240000486373901, 0.0, 0.0, 0.0, 0.0, 0.0, 1.70621699755412E9, 0.0, 2024-01-25 13:09:57.554
83.0, 1448.8933413336053, 2421.196271713823, -4504.187780584674, -4931.078661026899, -0.06400000303983688, -0.09600000455975533, 1.0240000486373901, 0.0, 0.0, 0.0, 0.0, 0.0, 1.706216997560125E9, 0.0, 2024-01-25 13:09:57.560
83.0, 1346.7398439939134, 2320.830446552951, -4523.685749003664, -5056.935644285753, -0.06400000303983688, -0.09600000455975533, 1.0240000486373901, 0.0, 0.0, 0.0, 0.0, 0.0, 1.706216997560125E9, 0.0, 2024-01-25 13:09:57.560
84.0, 1122.1476319548674, 2502.3483608523384, -4433.069843027275, -4866.860838887747, -0.06400000303983688, -0.09600000455975533, 1.0240000486373901, 0.0, 0.0, 0.0, 0.0, 0.0, 1.706216997567471E9, 0.0, 2024-01-25 13:09:57.567
84.0, 1249.8539957418106, 2698.349037730135, -4261.9245412549935, -4690.763909574132, -0.06400000303983688, -0.09600000455975533, 1.0240000486373901, 0.0, 0.0, 0.0, 0.0, 0.0, 1.706216997567471E9, 0.0, 2024-01-25 13:09:57.567
85.0, 1187.6800289284438, 2676.674447536934, -4219.618792956229, -4677.55084303068, -0.06400000303983688, -0.09600000455975533, 1.0240000486373901, 0.0, 0.0, 0.0, 0.0, 0.0, 1.706216997574248E9, 0.0, 2024-01-25 13:09:57.574
85.0, 1137.3895942242816, 2547.666598565411, -4381.118892742787, -4847.061808522325, -0.06400000303983688, -0.09600000455975533, 1.0240000486373901, 0.0, 0.0, 0.0, 0.0, 0.0, 1.706216997574248E9, 0.0, 2024-01-25 13:09:57.574
86.0, 1222.9229761608876, 2620.2262675557286, -4385.004648796748, -4788.732458863407, -0.06400000303983688, -0.09600000455975533, 1.0240000486373901, 0.0, 0.0, 0.0, 0.0, 0.0, 1.706216997588159E9, 0.0, 2024-01-25 13:09:57.588
86.0, 1396.289778506849, 2375.4329859060235, -4498.9874496962875, -4979.136375457514, -0.06400000303983688, -0.09600000455975533, 1.0240000486373901, 0.0, 0.0, 0.0, 0.0, 0.0, 1.706216997588159E9, 0.0, 2024-01-25 13:09:57.588
87.0, 1557.3093011491, 2490.2273450959474, -4382.323140528519, -4903.132258608006, -0.06400000303983688, -0.09600000455975533, 1.0240000486373901, 0.0, 0.0, 0.0, 0.0, 0.0, 1.706216997593127E9, 0.0, 2024-01-25 13:09:57.593
87.0, 1465.7415906339884, 2383.602797359228, -4162.4488122835755, -5081.450688495301, -0.06400000303983688, -0.09600000455975533, 1.0240000486373901, 0.0, 0.0, 0.0, 0.0, 0.0, 1.706216997593127E9, 0.0, 2024-01-25 13:09:57.593
88.0, 1479.1977506745607, 2468.7453597504646, -4003.955592061393, -4924.490827254951, -0.06400000303983688, -0.09600000455975533, 1.0240000486373901, 0.0, 0.0, 0.0, 0.0, 0.0, 1.706216997602132E9, 0.0, 2024-01-25 13:09:57.602
88.0, 1359.5452614421956, 2350.0353253069334, -4068.3174003488384, -5050.632042910438, -0.06400000303983688, -0.09600000455975533, 1.0240000486373901, 0.0, 0.0, 0.0, 0.0, 0.0, 1.706216997602132E9, 0.0, 2024-01-25 13:09:57.602
89.0, 1137.2082090764306, 2524.7690610866994, -3946.5294282417744, -4899.283901553601, -0.06400000303983688, -0.09600000455975533, 1.0240000486373901, 0.0, 0.0, 0.0, 0.0, 0.0, 1.706216997617115E9, 0.0, 2024-01-25 13:09:57.617
89.0, 1239.2102404679172, 2701.872023488395, -3786.9815562320873, -4699.490966120735, -0.06400000303983688, -0.09600000455975533, 1.0240000486373901, 0.0, 0.0, 0.0, 0.0, 0.0, 1.706216997617115E9, 0.0, 2024-01-25 13:09:57.617
90.0, 1191.1319565875456, 2693.3506614393555, -3710.197670241818, -4726.221901054028, -0.06400000303983688, -0.09600000455975533, 1.0240000486373901, 0.0, 0.0, 0.0, 0.0, 0.0, 1.706216997625247E9, 0.0, 2024-01-25 13:09:57.625
90.0, 1113.6561891054735, 2538.414086075034, -3882.8501516962424, -4834.70143916877, -0.06400000303983688, -0.09600000455975533, 1.0240000486373901, 0.0, 0.0, 0.0, 0.0, 0.0, 1.706216997625247E9, 0.0, 2024-01-25 13:09:57.625
91.0, 1217.8441920210607, 2627.616309868172, -3921.401040439494, -4808.396852830425, -0.06400000303983688, -0.0800000037997961, 1.0240000486373901, 0.0, 0.0, 0.0, 0.0, 0.0, 1.706216997649152E9, 0.0, 2024-01-25 13:09:57.649
91.0, 1370.080559617374, 2849.2801802419126, -4036.4048340269364, -5011.370573175605, -0.06400000303983688, -0.0800000037997961, 1.0240000486373901, 0.0, 0.0, 0.0, 0.0, 0.0, 1.706216997649152E9, 0.0, 2024-01-25 13:09:57.649
92.0, 1556.105053363368, 2986.828090762254, -3889.7240878148004, -4883.662339438684, -0.06400000303983688, -0.0800000037997961, 1.0240000486373901, 0.0, 0.0, 0.0, 0.0, 0.0, 1.706216997654722E9, 0.0, 2024-01-25 13:09:57.654
92.0, 1464.986130842939, 2844.667013646569, -3675.620425201487, -5076.8580913497135, -0.06400000303983688, -0.0800000037997961, 1.0240000486373901, 0.0, 0.0, 0.0, 0.0, 0.0, 1.706216997654722E9, 0.0, 2024-01-25 13:09:57.654
93.0, 1454.662137015257, 2930.8343086256646, -3528.7508140415885, -4923.709188164212, -0.06400000303983688, -0.0800000037997961, 1.0240000486373901, 0.0, 0.0, 0.0, 0.0, 0.0, 1.706216997659149E9, 0.0, 2024-01-25 13:09:57.659
93.0, 1381.3881471334025, 2826.059141417034, -3566.880964039825, -5032.673043323215, -0.06400000303983688, -0.0800000037997961, 1.0240000486373901, 0.0, 0.0, 0.0, 0.0, 0.0, 1.706216997659149E9, 0.0, 2024-01-25 13:09:57.659
94.0, 1582.5554957999848, 2959.4819422862493, -3484.5863354648463, -4913.061692990363, -0.06400000303983688, -0.0800000037997961, 1.0240000486373901, 0.0, 0.0, 0.0, 0.0, 0.0, 1.706216997663011E9, 0.0, 2024-01-25 13:09:57.663
94.0, 1768.5444604963996, 2715.9415271217003, -3295.5717917042784, -4703.574936872348, -0.06400000303983688, -0.0800000037997961, 1.0240000486373901, 0.0, 0.0, 0.0, 0.0, 0.0, 1.706216997663011E9, 0.0, 2024-01-25 13:09:57.663
95.0, 1684.5930562410504, 2656.318172078114, -3223.7619726550765, -4715.047079986427, -0.06400000303983688, -0.0800000037997961, 1.0240000486373901, 0.0, 0.0, 0.0, 0.0, 0.0, 1.706216997678246E9, 0.0, 2024-01-25 13:09:57.678
95.0, 1589.4948801677674, 2504.897102672141, -3408.030583371874, -4869.370311758015, -0.06400000303983688, -0.0800000037997961, 1.0240000486373901, 0.0, 0.0, 0.0, 0.0, 0.0, 1.706216997678246E9, 0.0, 2024-01-25 13:09:57.678
96.0, 1685.6869769780897, 2586.48863005545, -3425.0882670697756, -4808.538969028741, -0.06400000303983688, -0.0800000037997961, 1.0240000486373901, 0.0, 0.0, 0.0, 0.0, 0.0, 1.706216997683458E9, 0.0, 2024-01-25 13:09:57.683
96.0, 1863.7772729680873, 2808.919179920107, -3584.4210948320106, -5010.1027470906265, -0.06400000303983688, -0.0800000037997961, 1.0240000486373901, 0.0, 0.0, 0.0, 0.0, 0.0, 1.706216997683458E9, 0.0, 2024-01-25 13:09:57.683
97.0, 2055.377957548015, 2993.2831580857746, -3402.3085364396684, -4876.384494124912, -0.06400000303983688, -0.0800000037997961, 1.0240000486373901, 0.0, 0.0, 0.0, 0.0, 0.0, 1.706216997694152E9, 0.0, 2024-01-25 13:09:57.694
97.0, 1948.3420208161697, 2838.7056131171994, -3186.634115844965, -5089.326917801984, -0.06400000303983688, -0.0800000037997961, 1.0240000486373901, 0.0, 0.0, 0.0, 0.0, 0.0, 1.706216997694152E9, 0.0, 2024-01-25 13:09:57.694
98.0, 1904.77405628236, 2853.796109438408, -3074.5268747732043, -4978.820353911258, -0.06400000303983688, -0.0800000037997961, 1.0240000486373901, 0.0, 0.0, 0.0, 0.0, 0.0, 1.70621699770688E9, 0.0, 2024-01-25 13:09:57.706
98.0, 1886.671070546843, 2857.4836507947184, -3031.8546162787825, -5025.84024610417, -0.06400000303983688, -0.0800000037997961, 1.0240000486373901, 0.0, 0.0, 0.0, 0.0, 0.0, 1.70621699770688E9, 0.0, 2024-01-25 13:09:57.706
99.0, 2088.552740104962, 2997.114685590379, -2986.5326386657543, -4895.121392902918, -0.06400000303983688, -0.0800000037997961, 1.0240000486373901, 0.0, 0.0, 0.0, 0.0, 0.0, 1.706216997712467E9, 0.0, 2024-01-25 13:09:57.712
99.0, 2208.543690283317, 3169.7933463444933, -2825.9675138681196, -4734.563747905195, -0.06400000303983688, -0.0800000037997961, 1.0240000486373901, 0.0, 0.0, 0.0, 0.0, 0.0, 1.706216997712467E9, 0.0, 2024-01-25 13:09:57.712
100.0, 2172.1301543647423, 3170.5488061355427, -2754.6551015130244, -4689.688688336872, -0.06400000303983688, -0.0800000037997961, 1.0240000486373901, 0.0, 0.0, 0.0, 0.0, 0.0, 1.706216997723248E9, 0.0, 2024-01-25 13:09:57.723
100.0, 2092.690939405933, 3008.3979637566954, -2918.0999492765404, -4858.287118239328, -0.06400000303983688, -0.0800000037997961, 1.0240000486373901, 0.0, 0.0, 0.0, 0.0, 0.0, 1.706216997723248E9, 0.0, 2024-01-25 13:09:57.723
0.0, -1669.1622290238738, -1668.9004360269755, -1779.44252896728, -1690.808769967407, -0.06400000303983688, -0.0800000037997961, 1.0240000486373901, 0.0, 0.0, 0.0, 0.0, 0.0, 1.706216997730874E9, 0.0, 2024-01-25 13:09:57.730
1.0, -1544.2907094033435, -1502.7740799952298, -1943.079981578514, -1462.102667977102, -0.06400000303983688, -0.0800000037997961, 1.0240000486373901, 0.0, 0.0, 0.0, 0.0, 0.0, 1.706216997736115E9, 0.0, 2024-01-25 13:09:57.736
1.0, -1337.0310637089424, -1320.994372698944, -1745.3122019716538, -1319.0683242217638, -0.06400000303983688, -0.0800000037997961, 1.0240000486373901, 0.0, 0.0, 0.0, 0.0, 0.0, 1.706216997736115E9, 0.0, 2024-01-25 13:09:57.736
2.0, -1392.0823910566978, -1455.3315791073255, -1515.4149418454617, -1501.953171954956, -0.06400000303983688, -0.0800000037997961, 1.0240000486373901, 0.0, 0.0, 0.0, 0.0, 0.0, 1.706216997752252E9, 0.0, 2024-01-25 13:09:57.752
2.0, -1467.6078007118776, -1461.76607698109, -1426.4876006990671, -1416.5226372671314, -0.06400000303983688, -0.0800000037997961, 1.0240000486373901, 0.0, 0.0, 0.0, 0.0, 0.0, 1.706216997752252E9, 0.0, 2024-01-25 13:09:57.752
3.0, -1491.4290934796445, -1411.9730489710346, -1396.9386511491612, -1462.7234913697466, -0.06400000303983688, -0.0800000037997961, 1.0240000486373901, 0.0, 0.0, 0.0, 0.0, 0.0, 1.706216997757511E9, 0.0, 2024-01-25 13:09:57.757
3.0, -1260.6753962635994, -1306.304045672994, -1359.3694861442782, -1312.721713996958, -0.06400000303983688, -0.0800000037997961, 1.0240000486373901, 0.0, 0.0, 0.0, 0.0, 0.0, 1.706216997757511E9, 0.0, 2024-01-25 13:09:57.757
4.0, -1203.0996364457533, -1164.6852540508844, -1232.8299711435102, -1171.3310562721454, -0.06400000303983688, -0.0800000037997961, 1.0240000486373901, 0.0, 0.0, 0.0, 0.0, 0.0, 1.706216997767233E9, 0.0, 2024-01-25 13:09:57.767
4.0, -1191.9210754781961, -1125.3863853164949, -1085.934180683922, -1127.0169816971757, -0.06400000303983688, -0.0800000037997961, 1.0240000486373901, 0.0, 0.0, 0.0, 0.0, 0.0, 1.706216997767233E9, 0.0, 2024-01-25 13:09:57.767
5.0, -1234.92992496863, -1282.7127567525022, -1239.6627683625557, -1269.0471623144113, -0.06400000303983688, -0.0800000037997961, 1.0240000486373901, 0.0, 0.0, 0.0, 0.0, 0.0, 1.706216997782927E9, 0.0, 2024-01-25 13:09:57.782
5.0, -1181.2754502543248, -1208.7169661791995, -1290.469309260603, -1259.7441611746326, -0.06400000303983688, -0.0800000037997961, 1.0240000486373901, 0.0, 0.0, 0.0, 0.0, 0.0, 1.706216997782927E9, 0.0, 2024-01-25 13:09:57.782
6.0, -1006.805377421435, -982.1912258630618, -1427.392656488344, -1432.170378681738, -0.06400000303983688, -0.0800000037997961, 1.0240000486373901, 0.0, 0.0, 0.0, 0.0, 0.0, 1.706216997790139E9, 0.0, 2024-01-25 13:09:57.790
6.0, -823.712965240702, -837.0662780324928, -1271.9979433794506, -1303.2092784596607, -0.06400000303983688, -0.0800000037997961, 1.0240000486373901, 0.0, 0.0, 0.0, 0.0, 0.0, 1.706216997790139E9, 0.0, 2024-01-25 13:09:57.790
7.0, -912.0232228944078, -922.6912875180133, -1498.815395892132, -1461.0891550891101, -0.06400000303983688, -0.0800000037997961, 1.0240000486373901, 0.0, 0.0, 0.0, 0.0, 0.0, 1.706216997798142E9, 0.0, 2024-01-25 13:09:57.798
7.0, -986.7782131587155, -928.5311412988231, -1426.7737030456774, -1412.6499708630145, -0.06400000303983688, -0.0800000037997961, 1.0240000486373901, 0.0, 0.0, 0.0, 0.0, 0.0, 1.706216997798142E9, 0.0, 2024-01-25 13:09:57.798
8.0, -1019.0628995262086, -952.0158430705778, -1385.496427234728, -1455.6532105035149, -0.06400000303983688, -0.0800000037997961, 1.0240000486373901, 0.0, 0.0, 0.0, 0.0, 0.0, 1.706216997813478E9, 0.0, 2024-01-25 13:09:57.813
8.0, -1250.7609214810655, -771.3768052607775, -1264.213341621682, -1277.7480395613238, -0.06400000303983688, -0.0800000037997961, 1.0240000486373901, 0.0, 0.0, 0.0, 0.0, 0.0, 1.706216997813478E9, 0.0, 2024-01-25 13:09:57.813
9.0, -1196.023745729588, -679.6407992476597, -1232.1960581010208, -1180.4956811135635, -0.06400000303983688, -0.0800000037997961, 1.0240000486373901, 0.0, 0.0, 0.0, 0.0, 0.0, 1.706216997820137E9, 0.0, 2024-01-25 13:09:57.820
9.0, -1188.413049319759, -662.886047446169, -1086.4820760274306, -1125.118982469663, -0.06400000303983688, -0.0800000037997961, 1.0240000486373901, 0.0, 0.0, 0.0, 0.0, 0.0, 1.706216997820137E9, 0.0, 2024-01-25 13:09:57.820
10.0, -1244.9939957493916, -783.7371746143326, -1219.6673932494596, -1265.1931954100728, -0.06400000303983688, -0.0800000037997961, 1.0240000486373901, 0.0, 0.0, 0.0, 0.0, 0.0, 1.706216997828108E9, 0.0, 2024-01-25 13:09:57.828
10.0, -1229.4752808832563, -766.6327421669848, -1360.5793437799439, -1290.504838310182, -0.06400000303983688, -0.0800000037997961, 1.0240000486373901, 0.0, 0.0, 0.0, 0.0, 0.0, 1.706216997828108E9, 0.0, 2024-01-25 13:09:57.828
11.0, -1032.6967048146762, -977.015204324387, -1447.051440605428, -1427.46558453748, -0.06400000303983688, -0.0800000037997961, 1.0240000486373901, 0.0, 0.0, 0.0, 0.0, 0.0, 1.706216997843121E9, 0.0, 2024-01-25 13:09:57.843
11.0, -822.0300102606416, -799.0838540825062, -1263.394303531386, -1311.2425835644826, -0.06400000303983688, -0.0800000037997961, 1.0240000486373901, 0.0, 0.0, 0.0, 0.0, 0.0, 1.706216997843121E9, 0.0, 2024-01-25 13:09:57.843
12.0, -928.0412144046277, -999.1423224122263, -1055.3156197466888, -1500.081352027133, -0.06400000303983688, -0.0800000037997961, 1.0240000486373901, 0.0, 0.0, 0.0, 0.0, 0.0, 1.706216997848452E9, 0.0, 2024-01-25 13:09:57.848
12.0, -969.3166202655993, -949.6223070989363, -926.8874552682973, -1399.3209674209356, -0.06400000303983688, -0.0800000037997961, 1.0240000486373901, 0.0, 0.0, 0.0, 0.0, 0.0, 1.706216997848452E9, 0.0, 2024-01-25 13:09:57.848
13.0, -994.0541885225102, -961.9920262023807, -912.1709489426576, -1453.8692782246508, -0.06400000303983688, -0.0800000037997961, 1.0240000486373901, 0.0, 0.0, 0.0, 0.0, 0.0, 1.706216997872107E9, 0.0, 2024-01-25 13:09:57.872
13.0, -751.6581827444024, -787.9875709139742, -800.6377825140953, -1294.0914023676887, -0.06400000303983688, -0.0800000037997961, 1.0240000486373901, 0.0, 0.0, 0.0, 0.0, 0.0, 1.706216997872107E9, 0.0, 2024-01-25 13:09:57.872
14.0, -701.4724652389996, -677.0509185283445, -712.3088253606111, -1171.5984591189772, -0.06400000303983688, -0.0800000037997961, 1.0240000486373901, 0.0, 0.0, 0.0, 0.0, 0.0, 1.706216997877245E9, 0.0, 2024-01-25 13:09:57.877
14.0, -696.9247468928806, -674.1076172632165, -606.308840916492, -1148.6055541913956, -0.06400000303983688, -0.0800000037997961, 1.0240000486373901, 0.0, 0.0, 0.0, 0.0, 0.0, 1.706216997877245E9, 0.0, 2024-01-25 13:09:57.877
15.0, -702.0072709326632, -732.3453393732198, -694.9856087658554, -1227.6857387544587, -0.06400000303983688, -0.0800000037997961, 1.0240000486373901, 0.0, 0.0, 0.0, 0.0, 0.0, 1.706216997883136E9, 0.0, 2024-01-25 13:09:57.883
15.0, -731.2420688862912, -761.4380211285315, -851.6761972093955, -1281.2149268202484, -0.06400000303983688, -0.0800000037997961, 1.0240000486373901, 0.0, 0.0, 0.0, 0.0, 0.0, 1.706216997883136E9, 0.0, 2024-01-25 13:09:57.883
16.0, -541.6814997321926, -1005.2664085896686, -946.6528265341185, -1449.0560269816779, -0.06400000303983688, -0.0800000037997961, 1.0240000486373901, 0.0, 0.0, 0.0, 0.0, 0.0, 1.706216997888092E9, 0.0, 2024-01-25 13:09:57.888
16.0, -301.4097571289167, -769.7144197304733, -736.479798774235, -1262.646323540248, -0.06400000303983688, -0.0800000037997961, 1.0240000486373901, 0.0, 0.0, 0.0, 0.0, 0.0, 1.706216997888092E9, 0.0, 2024-01-25 13:09:57.888
17.0, -416.2246857685968, -960.1351658743806, -537.6012688805349, -1491.7338953260332, -0.06400000303983688, -0.0800000037997961, 1.0240000486373901, 0.0, 0.0, 0.0, 0.0, 0.0, 1.706216997903132E9, 0.0, 2024-01-25 13:09:57.903
17.0, -486.79098808253184, -938.204392534215, -421.746648053173, -1402.2754883859307, -0.06400000303983688, -0.0800000037997961, 1.0240000486373901, 0.0, 0.0, 0.0, 0.0, 0.0, 1.706216997903132E9, 0.0, 2024-01-25 13:09:57.903
18.0, -488.9320808071643, -943.2364279245958, -388.95894514163956, -1448.6521177864634, -0.06400000303983688, -0.0800000037997961, 1.0240000486373901, 0.0, 0.0, 0.0, 0.0, 0.0, 1.706216997909489E9, 0.0, 2024-01-25 13:09:57.909
18.0, -732.8782751169056, -769.1683943369426, -315.2174677653238, -1304.955811738968, -0.06400000303983688, -0.0800000037997961, 1.0240000486373901, 0.0, 0.0, 0.0, 0.0, 0.0, 1.706216997909489E9, 0.0, 2024-01-25 13:09:57.909
19.0, -640.8916958067566, -665.1804760689847, -220.28384729009122, -1187.6089708292857, -0.06400000303983688, -0.0800000037997961, 1.0240000486373901, 0.0, 0.0, 0.0, 0.0, 0.0, 1.706216997934131E9, 0.0, 2024-01-25 13:09:57.934
19.0, -686.3221305184998, -659.2415149393491, -143.57849919889122, -1121.7867316091433, -0.06400000303983688, -0.0800000037997961, 1.0240000486373901, 0.0, 0.0, 0.0, 0.0, 0.0, 1.706216997934131E9, 0.0, 2024-01-25 13:09:57.934
20.0, -716.4320650617592, -744.7842466258444, -214.31122706085443, -1228.1307868491858, -0.06400000303983688, -0.0800000037997961, 1.0240000486373901, 0.0, 0.0, 0.0, 0.0, 0.0, 1.706216997941107E9, 0.0, 2024-01-25 13:09:57.941
20.0, -721.0246622073464, -743.9595986856148, -332.48084596078843, -1256.0902789179236, -0.06400000303983688, -0.0800000037997961, 1.0240000486373901, 0.0, 0.0, 0.0, 0.0, 0.0, 1.706216997941107E9, 0.0, 2024-01-25 13:09:57.941
21.0, -550.4590449281968, -515.0702415974811, -475.3244548183866, -1467.1870619668625, -0.06400000303983688, -0.0800000037997961, 1.0240000486373901, 0.0, 0.0, 0.0, 0.0, 0.0, 1.706216997951127E9, 0.0, 2024-01-25 13:09:57.951
21.0, -767.0516109620221, -753.0774747775868, -700.4963513505645, -1240.3116410048679, -0.06400000303983688, -0.0800000037997961, 1.0240000486373901, 0.0, 0.0, 0.0, 0.0, 0.0, 1.706216997951127E9, 0.0, 2024-01-25 13:09:57.951
22.0, -908.4834075863473, -943.8722109170631, -529.8652858221903, -996.1765817473643, -0.06400000303983688, -0.0800000037997961, 1.0240000486373901, 0.0, 0.0, 0.0, 0.0, 0.0, 1.706216997957101E9, 0.0, 2024-01-25 13:09:57.957
22.0, -1031.120336983353, -985.4729880741797, -476.6427695527673, -946.6154275345616, -0.06400000303983688, -0.0800000037997961, 1.0240000486373901, 0.0, 0.0, 0.0, 0.0, 0.0, 1.706216997957101E9, 0.0, 2024-01-25 13:09:57.957
23.0, -984.9101331308484, -898.9653621991165, -377.7785142241046, -929.3071705396287, -0.06400000303983688, -0.0800000037997961, 1.0240000486373901, 0.0, 0.0, 0.0, 0.0, 0.0, 1.706216997963112E9, 0.0, 2024-01-25 13:09:57.963
23.0, -1217.7750038718805, -761.2117571812123, -314.6134739224799, -777.1661703921854, -0.06400000303983688, -0.0800000037997961, 1.0240000486373901, 0.0, 0.0, 0.0, 0.0, 0.0, 1.706216997963112E9, 0.0, 2024-01-25 13:09:57.963
24.0, -1184.373957367614, -684.5737272892147, -270.5537125444971, -704.3877172544599, -0.06400000303983688, -0.0800000037997961, 1.0240000486373901, 0.0, 0.0, 0.0, 0.0, 0.0, 1.706216997979219E9, 0.0, 2024-01-25 13:09:57.979
24.0, -1187.7118180780672, -629.3428847435862, -122.72294709598646, -630.9585215244442, -0.06400000303983688, -0.0800000037997961, 1.0240000486373901, 0.0, 0.0, 0.0, 0.0, 0.0, 1.706216997979219E9, 0.0, 2024-01-25 13:09:57.979
25.0, -1216.912956932094, -756.8510338328779, -214.13732171291485, -751.1065475009382, -0.06400000303983688, -0.0800000037997961, 1.0240000486373901, 0.0, 0.0, 0.0, 0.0, 0.0, 1.706216997986141E9, 0.0, 2024-01-25 13:09:57.986
25.0, -1201.2296864679083, -733.8412993554957, -349.2486874121241, -760.733049986884, -0.06400000303983688, -0.0800000037997961, 1.0240000486373901, 0.0, 0.0, 0.0, 0.0, 0.0, 1.706216997986141E9, 0.0, 2024-01-25 13:09:57.986
26.0, -1076.6199598442763, -523.0493181529455, -498.4950049938634, -968.6957968729548, -0.06400000303983688, -0.0800000037997961, 1.0240000486373901, 0.0, 0.0, 0.0, 0.0, 0.0, 1.706216997992091E9, 0.0, 2024-01-25 13:09:57.992
26.0, -1281.858189612627, -287.0223619993776, -733.2335656126961, -772.106085752137, -0.06400000303983688, -0.0800000037997961, 1.0240000486373901, 0.0, 0.0, 0.0, 0.0, 0.0, 1.706216997992091E9, 0.0, 2024-01-25 13:09:57.992
27.0, -1399.5715407179669, -441.2072174726054, -542.7436313196085, -988.8407679842785, -0.06400000303983688, -0.0800000037997961, 1.0240000486373901, 0.0, 0.0, 0.0, 0.0, 0.0, 1.706216997998106E9, 0.0, 2024-01-25 13:09:57.998
27.0, -1530.8700784123503, -497.5805994546972, -500.5126810199581, -961.9508873028681, -0.06400000303983688, -0.0800000037997961, 1.0240000486373901, 0.0, 0.0, 0.0, 0.0, 0.0, 1.706216997998106E9, 0.0, 2024-01-25 13:09:57.998
28.0, -1451.7711943495087, -438.2620462574996, -384.4336661952548, -939.096358673647, -0.06400000303983688, -0.0800000037997961, 1.0240000486373901, 0.0, 0.0, 0.0, 0.0, 0.0, 1.706216998008129E9, 0.0, 2024-01-25 13:09:58.008
28.0, -1217.7712639719248, -268.5734355179593, -285.3955055186525, -796.2265705163591, -0.06400000303983688, -0.0800000037997961, 1.0240000486373901, 0.0, 0.0, 0.0, 0.0, 0.0, 1.706216998008129E9, 0.0, 2024-01-25 13:09:58.008
29.0, -1222.9566352604888, -212.57591348141432, -264.55678296554834, -724.6785444640554, -0.06400000303983688, -0.0800000037997961, 1.0240000486373901, 0.0, 0.0, 0.0, 0.0, 0.0, 1.706216998024129E9, 0.0, 2024-01-25 13:09:58.024
29.0, -1178.2199519905262, -134.98046920076013, -92.3044708063826, -632.7480636532418, -0.06400000303983688, -0.0800000037997961, 1.0240000486373901, 0.0, 0.0, 0.0, 0.0, 0.0, 1.706216998024129E9, 0.0, 2024-01-25 13:09:58.024
30.0, -1233.3647768371738, -260.39427431486547, -233.4819542337209, -742.5590061522089, -0.06400000303983688, -0.0800000037997961, 1.0240000486373901, 0.0, 0.0, 0.0, 0.0, 0.0, 1.706216998027741E9, 0.0, 2024-01-25 13:09:58.027
30.0, -1222.0758888209239, -263.4909114781767, -375.8412460470572, -772.5941426963545, -0.06400000303983688, -0.0800000037997961, 1.0240000486373901, 0.0, 0.0, 0.0, 0.0, 0.0, 1.706216998027741E9, 0.0, 2024-01-25 13:09:58.027
31.0, -1046.9401137959212, -36.845494363456964, -468.92548599420115, -975.0816760472953, -0.06400000303983688, -0.0800000037997961, 1.0240000486373901, 0.0, 0.0, 0.0, 0.0, 0.0, 1.70621699803587E9, 0.0, 2024-01-25 13:09:58.035
31.0, -1266.842491290532, 207.1586683955975, -245.14670219551772, -772.0368976029567, -0.06400000303983688, -0.0800000037997961, 1.0240000486373901, 0.0, 0.0, 0.0, 0.0, 0.0, 1.70621699803587E9, 0.0, 2024-01-25 13:09:58.035
32.0, -1401.4564502956346, 67.61926114885136, -55.494505492504686, -992.5039999908768, -0.06400000303983688, -0.0800000037997961, 1.0240000486373901, 0.0, 0.0, 0.0, 0.0, 0.0, 1.706216998054145E9, 0.0, 2024-01-25 13:09:58.054
32.0, -1503.5987279354595, 2.700207768008113, -20.556360106449574, -951.3950196779333, -0.06400000303983688, -0.0800000037997961, 1.0240000486373901, 0.0, 0.0, 0.0, 0.0, 0.0, 1.706216998054145E9, 0.0, 2024-01-25 13:09:58.054
33.0, -1442.8365733553655, 83.01455931644887, 116.32023837184533, -938.421306731645, -0.06400000303983688, -0.0800000037997961, 1.0240000486373901, 0.0, 0.0, 0.0, 0.0, 0.0, 1.70621699806051E9, 0.0, 2024-01-25 13:09:58.060
33.0, -1684.3780119935982, 226.17979957023636, 196.49060377199203, -767.4125113077462, -0.06400000303983688, -0.0800000037997961, 1.0240000486373901, 0.0, 0.0, 0.0, 0.0, 0.0, 1.70621699806051E9, 0.0, 2024-01-25 13:09:58.060
34.0, -1701.688138938509, 273.8934432049282, 185.6991224498488, -734.344315899536, -0.06400000303983688, -0.0800000037997961, 1.0240000486373901, 0.0, 0.0, 0.0, 0.0, 0.0, 1.70621699806824E9, 0.0, 2024-01-25 13:09:58.068
34.0, -1701.0560958459973, 334.259168389719, 376.3816615906544, -653.7980905538425, -0.06400000303983688, -0.0800000037997961, 1.0240000486373901, 0.0, 0.0, 0.0, 0.0, 0.0, 1.70621699806824E9, 0.0, 2024-01-25 13:09:58.068
35.0, -1679.4750031516887, 255.50061522284523, 303.22173865744844, -694.0057549774647, -0.06400000303983688, -0.0800000037997961, 1.0240000486373901, 0.0, 0.0, 0.0, 0.0, 0.0, 1.706216998084479E9, 0.0, 2024-01-25 13:09:58.084
35.0, -1730.5582966464572, 217.98941866727546, 128.46743342792615, -808.1250622253865, -0.06400000303983688, -0.0800000037997961, 1.0240000486373901, 0.0, 0.0, 0.0, 0.0, 0.0, 1.706216998084479E9, 0.0, 2024-01-25 13:09:58.084
36.0, -1564.906907909084, 425.9203764037229, -19.585856067948043, -988.5771050374024, -0.06400000303983688, -0.0800000037997961, 1.0240000486373901, 0.0, 0.0, 0.0, 0.0, 0.0, 1.706216998090111E9, 0.0, 2024-01-25 13:09:58.090
36.0, -1782.2624135338701, 201.04767186800018, -210.806940802373, -757.8795063206926, -0.06400000303983688, -0.0800000037997961, 1.0240000486373901, 0.0, 0.0, 0.0, 0.0, 0.0, 1.706216998090111E9, 0.0, 2024-01-25 13:09:58.090
37.0, -1893.0419901213609, 52.95511342259124, -52.285671330522746, -993.1341731334105, -0.06400000303983688, -0.0800000037997961, 1.0240000486373901, 0.0, 0.0, 0.0, 0.0, 0.0, 1.706216998099122E9, 0.0, 2024-01-25 13:09:58.099
37.0, -2017.1599199008197, -47.5416082367301, -28.82901880843565, -990.6695790626109, -0.06400000303983688, -0.0800000037997961, 1.0240000486373901, 0.0, 0.0, 0.0, 0.0, 0.0, 1.706216998099122E9, 0.0, 2024-01-25 13:09:58.099
38.0, -1927.4546795636415, 62.617144958116114, 86.5431549246423, -933.5800062390044, -0.06400000303983688, -0.0800000037997961, 1.0240000486373901, 0.0, 0.0, 0.0, 0.0, 0.0, 1.706216998114461E9, 0.0, 2024-01-25 13:09:58.114
38.0, -2170.1143482886255, 244.90547864837572, 198.85422054398805, -765.1442619846202, -0.06400000303983688, -0.0800000037997961, 1.0240000486373901, 0.0, 0.0, 0.0, 0.0, 0.0, 1.706216998114461E9, 0.0, 2024-01-25 13:09:58.114
39.0, -2209.7329784692265, 258.68327008513734, 190.02618669858202, -721.3201143038459, -0.06400000303983688, -0.0800000037997961, 1.0240000486373901, 0.0, 0.0, 0.0, 0.0, 0.0, 1.70621699812123E9, 0.0, 2024-01-25 13:09:58.121
39.0, -2161.125498745125, 328.1032930626534, 377.5260709770955, -645.0859936070628, -0.06400000303983688, -0.0800000037997961, 1.0240000486373901, 0.0, 0.0, 0.0, 0.0, 0.0, 1.70621699812123E9, 0.0, 2024-01-25 13:09:58.121
40.0, -2174.147830390837, 267.80114617710933, 307.3543281084858, -679.0368054048158, -0.06400000303983688, -0.0800000037997961, 1.0240000486373901, 0.0, 0.0, 0.0, 0.0, 0.0, 1.706216998126847E9, 0.0, 2024-01-25 13:09:58.126
40.0, -2211.5169107480906, 226.4191531674005, 147.7204383998178, -780.0552431079559, -0.06400000303983688, -0.0800000037997961, 1.0240000486373901, 0.0, 0.0, 0.0, 0.0, 0.0, 1.706216998126847E9, 0.0, 2024-01-25 13:09:58.126
41.0, -2027.2071611317806, -10.961646770127118, 28.655113460496068, -948.3451312640682, -0.06400000303983688, -0.0800000037997961, 1.0240000486373901, 0.0, 0.0, 0.0, 0.0, 0.0, 1.706216998142117E9, 0.0, 2024-01-25 13:09:58.142
41.0, -2182.973994286265, -219.86871839500964, -161.8217311827466, -1192.2314871745184, -0.06400000303983688, -0.0800000037997961, 1.0240000486373901, 0.0, 0.0, 0.0, 0.0, 0.0, 1.706216998142117E9, 0.0, 2024-01-25 13:09:58.142
42.0, -2329.7388882474042, -396.8220847984776, 1.7932820287533104, -1410.929616883397, -0.06400000303983688, -0.0800000037997961, 1.0240000486373901, 0.0, 0.0, 0.0, 0.0, 0.0, 1.706216998148789E9, 0.0, 2024-01-25 13:09:58.148
42.0, -2480.83645630721, -470.18957217922434, 17.283947645220906, -1427.1439531412907, -0.06400000303983688, -0.0800000037997961, 1.0240000486373901, 0.0, 0.0, 0.0, 0.0, 0.0, 1.706216998148789E9, 0.0, 2024-01-25 13:09:58.148
43.0, -2372.001627696678, -382.33558232011274, 146.1945592178963, -1358.9693168490194, -0.06400000303983688, -0.0800000037997961, 1.0240000486373901, 0.0, 0.0, 0.0, 0.0, 0.0, 1.706216998156454E9, 0.0, 2024-01-25 13:09:58.156
43.0, -2608.183789698407, -189.7587838517502, 274.800368944183, -1192.2165275746956, -0.06400000303983688, -0.0800000037997961, 1.0240000486373901, 0.0, 0.0, 0.0, 0.0, 0.0, 1.706216998156454E9, 0.0, 2024-01-25 13:09:58.156
44.0, -2693.94530553231, -217.94827976776287, 231.63631360558793, -1170.71958262939, -0.06400000303983688, -0.0800000037997961, 1.0240000486373901, 0.0, 0.0, 0.0, 0.0, 0.0, 1.706216998173194E9, 0.0, 2024-01-25 13:09:58.173
44.0, -2578.9209424951114, -66.28411686467007, 443.43806779617444, -1054.756504703313, -0.06400000303983688, -0.0800000037997961, 1.0240000486373901, 0.0, 0.0, 0.0, 0.0, 0.0, 1.706216998173194E9, 0.0, 2024-01-25 13:09:58.173
45.0, -2549.8263907898217, -124.31614447711036, 423.6577369305305, -1100.9704484557733, -0.06400000303983688, -0.0800000037997961, 1.0240000486373901, 0.0, 0.0, 0.0, 0.0, 0.0, 1.706216998179109E9, 0.0, 2024-01-25 13:09:58.179
45.0, -2612.8698843428865, -160.78390894504264, 225.74597117537633, -1181.2997596040368, -0.06400000303983688, -0.0800000037997961, 1.0240000486373901, 0.0, 0.0, 0.0, 0.0, 0.0, 1.706216998179109E9, 0.0, 2024-01-25 13:09:58.179
46.0, -2470.020665635355, 24.430896460544318, 90.48313952796161, -1374.676896662917, -0.06400000303983688, -0.0800000037997961, 1.0240000486373901, 0.0, 0.0, 0.0, 0.0, 0.0, 1.70621699820358E9, 0.0, 2024-01-25 13:09:58.203
46.0, -2620.2487069554627, -112.99172741128132, -79.08766436297446, -1594.1379659627564, -0.06400000303983688, -0.0800000037997961, 1.0240000486373901, 0.0, 0.0, 0.0, 0.0, 0.0, 1.70621699820358E9, 0.0, 2024-01-25 13:09:58.203
47.0, -2749.5894070230424, -308.9063865900971, 84.65450544701889, -1822.0250298627652, -0.06400000303983688, -0.0800000037997961, 1.0240000486373901, 0.0, 0.0, 0.0, 0.0, 0.0, 1.706216998210794E9, 0.0, 2024-01-25 13:09:58.210
47.0, -2907.4599339026026, -393.1569828419015, 91.19559046952054, -1835.6588351512328, -0.06400000303983688, -0.0800000037997961, 1.0240000486373901, 0.0, 0.0, 0.0, 0.0, 0.0, 1.706216998210794E9, 0.0, 2024-01-25 13:09:58.210
48.0, -2788.4263981129043, -281.10958016943187, 243.2786221676506, -1769.7019595326856, -0.06400000303983688, -0.0800000037997961, 1.0240000486373901, 0.0, 0.0, 0.0, 0.0, 0.0, 1.706216998218099E9, 0.0, 2024-01-25 13:09:58.218
48.0, -2984.041865295265, -94.99532882450148, 412.8288566088304, -1549.0572118968703, -0.06400000303983688, -0.0800000037997961, 1.0240000486373901, 0.0, 0.0, 0.0, 0.0, 0.0, 1.706216998218099E9, 0.0, 2024-01-25 13:09:58.218
49.0, -3013.420649397187, -37.49810690572485, 380.7087258393876, -1525.7688548727892, -0.06400000303983688, -0.0800000037997961, 1.0240000486373901, 0.0, 0.0, 0.0, 0.0, 0.0, 1.706216998223216E9, 0.0, 2024-01-25 13:09:58.223
49.0, -2978.912592506036, 36.71272791502997, 552.1943585076369, -1411.9973583207466, -0.06400000303983688, -0.0800000037997961, 1.0240000486373901, 0.0, 0.0, 0.0, 0.0, 0.0, 1.706216998223216E9, 0.0, 2024-01-25 13:09:58.223
50.0, -2922.7037661219947, 16.476129254791886, 523.610303146299, -1440.7497091800906, -0.06400000303983688, -0.0800000037997961, 1.0240000486373901, 0.0, 0.0, 0.0, 0.0, 0.0, 1.706216998231431E9, 0.0, 2024-01-25 13:09:58.231
50.0, -3021.4969633514993, -98.71652928041294, 337.4418232520111, -1573.3964808085002, -0.06400000303983688, -0.0800000037997961, 1.0240000486373901, 0.0, 0.0, 0.0, 0.0, 0.0, 1.706216998231431E9, 0.0, 2024-01-25 13:09:58.231
51.0, -2873.093993209768, 128.8563830233179, 171.66888776607811, -1785.5516555448994, -0.06400000303983688, -0.0800000037997961, 1.0240000486373901, 0.0, 0.0, 0.0, 0.0, 0.0, 1.70621699823576E9, 0.0, 2024-01-25 13:09:58.235
51.0, -3037.2793411645107, -88.03537500696257, -23.613728320226073, -1553.3244377463125, -0.06400000303983688, -0.0800000037997961, 1.0240000486373901, 0.0, 0.0, 0.0, 0.0, 0.0, 1.70621699823576E9, 0.0, 2024-01-25 13:09:58.235
52.0, -3183.258856134955, -271.989834127482, 135.84625604050234, -1777.583798689302, -0.06400000303983688, -0.0800000037997961, 1.0240000486373901, 0.0, 0.0, 0.0, 0.0, 0.0, 1.706216998262742E9, 0.0, 2024-01-25 13:09:58.262
52.0, -3339.139756238088, -375.20172315463424, 118.08360120095313, -1819.4014900438488, -0.06400000303983688, -0.0800000037997961, 1.0240000486373901, 0.0, 0.0, 0.0, 0.0, 0.0, 1.706216998262742E9, 0.0, 2024-01-25 13:09:58.262
53.0, -3278.343942558393, -296.581546286121, 250.93980722688138, -1769.4401665357873, -0.06400000303983688, -0.0800000037997961, 1.0240000486373901, 0.0, 0.0, 0.0, 0.0, 0.0, 1.70621699826744E9, 0.0, 2024-01-25 13:09:58.267
53.0, -3054.2248278637417, -165.57098088832572, 314.3816001252271, -1648.4076542197727, -0.06400000303983688, -0.0800000037997961, 1.0240000486373901, 0.0, 0.0, 0.0, 0.0, 0.0, 1.70621699826744E9, 0.0, 2024-01-25 13:09:58.267
54.0, -3198.452199704945, -262.6157748885453, 174.73186582978815, -1741.5143335666507, -0.06400000303983688, -0.0800000037997961, 1.0240000486373901, 0.0, 0.0, 0.0, 0.0, 0.0, 1.706216998274223E9, 0.0, 2024-01-25 13:09:58.274
54.0, -3165.9711685897782, -183.74502472300082, 342.69451273977757, -1665.4111093683168, -0.06400000303983688, -0.0800000037997961, 1.0240000486373901, 0.0, 0.0, 0.0, 0.0, 0.0, 1.706216998274223E9, 0.0, 2024-01-25 13:09:58.274
55.0, -3160.3744083060883, -238.1082104789093, 294.0384143162519, -1725.0587737616152, -0.06400000303983688, -0.0800000037997961, 1.0240000486373901, 0.0, 0.0, 0.0, 0.0, 0.0, 1.706216998277733E9, 0.0, 2024-01-25 13:09:58.277
55.0, -3250.8388483342715, -349.22811796236783, 524.8182908319868, -1889.3824980147183, -0.06400000303983688, -0.0800000037997961, 1.0240000486373901, 0.0, 0.0, 0.0, 0.0, 0.0, 1.706216998277733E9, 0.0, 2024-01-25 13:09:58.277
56.0, -3098.3818266405724, -125.83267390914261, 413.8274098969996, -2054.28029691102, -0.06400000303983688, -0.0800000037997961, 1.0240000486373901, 0.0, 0.0, 0.0, 0.0, 0.0, 1.706216998294224E9, 0.0, 2024-01-25 13:09:58.294
56.0, -3256.2504835701548, -322.753366176039, 263.99579797219485, -2256.339611717034, -0.06400000303983688, -0.0800000037997961, 1.0240000486373901, 0.0, 0.0, 0.0, 0.0, 0.0, 1.706216998294224E9, 0.0, 2024-01-25 13:09:58.294
57.0, -3407.0469896835275, -508.40199997648597, 396.19191165594384, -2026.008523195982, -0.06400000303983688, -0.0800000037997961, 1.0240000486373901, 0.0, 0.0, 0.0, 0.0, 0.0, 1.706216998300103E9, 0.0, 2024-01-25 13:09:58.300
57.0, -3592.3459428381175, -635.7325038178824, 342.2644242448732, -2083.0850063697435, -0.06400000303983688, -0.0800000037997961, 1.0240000486373901, 0.0, 0.0, 0.0, 0.0, 0.0, 1.706216998300103E9, 0.0, 2024-01-25 13:09:58.300
58.0, -3454.403472872451, -476.25942980730906, 557.31989139691, -1951.9977730228566, -0.06400000303983688, -0.0800000037997961, 1.0240000486373901, 0.0, 0.0, 0.0, 0.0, 0.0, 1.706216998306079E9, 0.0, 2024-01-25 13:09:58.306
58.0, -3675.5138380527496, -289.60663286875933, 664.4437157777138, -1767.4318402595818, -0.06400000303983688, -0.0800000037997961, 1.0240000486373901, 0.0, 0.0, 0.0, 0.0, 0.0, 1.706216998306079E9, 0.0, 2024-01-25 13:09:58.306
59.0, -3792.78401101334, -345.23951465962455, 557.3759898962453, -1844.8384195924737, -0.06400000303983688, -0.0800000037997961, 1.0240000486373901, 0.0, 0.0, 0.0, 0.0, 0.0, 1.706216998322199E9, 0.0, 2024-01-25 13:09:58.322
59.0, -3704.4475740599446, -230.41710622003302, 787.9670014642179, -1709.8130715922453, -0.06400000303983688, -0.0800000037997961, 1.0240000486373901, 0.0, 0.0, 0.0, 0.0, 0.0, 1.706216998322199E9, 0.0, 2024-01-25 13:09:58.322
60.0, -3669.152268228121, -281.1825082185678, 745.1825459711254, -1740.8168422249146, -0.06400000303983688, -0.0800000037997961, 1.0240000486373901, 0.0, 0.0, 0.0, 0.0, 0.0, 1.706216998329115E9, 0.0, 2024-01-25 13:09:58.329
60.0, -3770.982264221646, -368.5278716837056, 517.5610149679706, -1879.2828981843777, -0.06400000303983688, -0.0800000037997961, 1.0240000486373901, 0.0, 0.0, 0.0, 0.0, 0.0, 1.706216998329115E9, 0.0, 2024-01-25 13:09:58.329
61.0, -3615.1144537683576, -163.0203691185452, 385.1218077871017, -2064.5968109387904, -0.06400000303983688, -0.0800000037997961, 1.0240000486373901, 0.0, 0.0, 0.0, 0.0, 0.0, 1.706216998336566E9, 0.0, 2024-01-25 13:09:58.336
61.0, -3729.431975713931, -318.6787451743148, 223.37487460346892, -2257.0221434589475, -0.06400000303983688, -0.0800000037997961, 1.0240000486373901, 0.0, 0.0, 0.0, 0.0, 0.0, 1.706216998336566E9, 0.0, 2024-01-25 13:09:58.336
62.0, -3882.218108603731, -493.2572751059197, 388.9196761921048, -2497.2845363123342, -0.06400000303983688, -0.0800000037997961, 1.0240000486373901, 0.0, 0.0, 0.0, 0.0, 0.0, 1.706216998368103E9, 0.0, 2024-01-25 13:09:58.368
62.0, -4084.365311058704, -656.9358666166663, 317.03318919381127, -2591.180334549863, -0.06400000303983688, -0.0800000037997961, 1.0240000486373901, 0.0, 0.0, 0.0, 0.0, 0.0, 1.706216998368103E9, 0.0, 2024-01-25 13:09:58.368
63.0, -3954.7777775940485, -452.5503340382129, 552.8338814000599, -2455.919372852426, -0.06400000303983688, -0.0800000037997961, 1.0240000486373901, 0.0, 0.0, 0.0, 0.0, 0.0, 1.706216998375108E9, 0.0, 2024-01-25 13:09:58.375
63.0, -4175.2934986813925, -298.6067021121271, 685.0786137832329, -2259.853247725405, -0.06400000303983688, -0.0800000037997961, 1.0240000486373901, 0.0, 0.0, 0.0, 0.0, 0.0, 1.706216998375108E9, 0.0, 2024-01-25 13:09:58.375
64.0, -4294.272805921733, -336.50497831311077, 557.2507032477297, -2333.1721164067276, -0.06400000303983688, -0.0800000037997961, 1.0240000486373901, 0.0, 0.0, 0.0, 0.0, 0.0, 1.706216998381216E9, 0.0, 2024-01-25 13:09:58.381
64.0, -4199.455122345127, -238.53829897381365, 796.2714493158273, -2185.438588357065, -0.06400000303983688, -0.0800000037997961, 1.0240000486373901, 0.0, 0.0, 0.0, 0.0, 0.0, 1.706216998381216E9, 0.0, 2024-01-25 13:09:58.381
65.0, -4160.498454456683, -274.22442435100675, 745.5172670171596, -2219.3071223557927, -0.06400000303983688, -0.0800000037997961, 1.0240000486373901, 0.0, 0.0, 0.0, 0.0, 0.0, 1.706216998385444E9, 0.0, 2024-01-25 13:09:58.385
65.0, -4274.550443505403, -374.42382396385074, 532.7805378376506, -2379.225244461093, -0.06400000303983688, -0.0800000037997961, 1.0240000486373901, 0.0, 0.0, 0.0, 0.0, 0.0, 1.706216998385444E9, 0.0, 2024-01-25 13:09:58.385
66.0, -4104.710366817657, -154.22973427269608, 366.5176754575223, -2572.785636617802, -0.06400000303983688, -0.0800000037997961, 1.0240000486373901, 0.0, 0.0, 0.0, 0.0, 0.0, 1.706216998391138E9, 0.0, 2024-01-25 13:09:58.391
66.0, -4224.383425499778, -283.0954670459032, 236.63842979632318, -2750.3860057136044, -0.06400000303983688, -0.0800000037997961, 1.0240000486373901, 0.0, 0.0, 0.0, 0.0, 0.0, 1.706216998391138E9, 0.0, 2024-01-25 13:09:58.391
67.0, -4384.787734599318, -496.84196921344846, 407.86413941765204, -2989.769522077404, -0.06400000303983688, -0.0800000037997961, 1.0240000486373901, 0.0, 0.0, 0.0, 0.0, 0.0, 1.706216998430123E9, 0.0, 2024-01-25 13:09:58.430
67.0, -4620.930627651513, -666.7736734501086, 329.7133199935779, -3081.8327693366446, -0.06400000303983688, -0.0800000037997961, 1.0240000486373901, 0.0, 0.0, 0.0, 0.0, 0.0, 1.706216998430123E9, 0.0, 2024-01-25 13:09:58.430
68.0, -4428.034067736939, -462.3021231726743, 562.7427463326603, -2956.351646023337, -0.06400000303983688, -0.0800000037997961, 1.0240000486373901, 0.0, 0.0, 0.0, 0.0, 0.0, 1.706216998437093E9, 0.0, 2024-01-25 13:09:58.437
68.0, -4652.678638375364, -279.9801303828135, 685.9892794224434, -2750.4682835126296, -0.06400000303983688, -0.0800000037997961, 1.0240000486373901, 0.0, 0.0, 0.0, 0.0, 0.0, 1.706216998437093E9, 0.0, 2024-01-25 13:09:58.437
69.0, -4784.115552368108, -367.8135507921688, 572.2495720200241, -2846.2527312277816, -0.06400000303983688, -0.0800000037997961, 1.0240000486373901, 0.0, 0.0, 0.0, 0.0, 0.0, 1.706216998444196E9, 0.0, 2024-01-25 13:09:58.444
69.0, -4694.21957713319, -221.88265452114865, 775.8721650075167, -2680.6125621902756, -0.06400000303983688, -0.0800000037997961, 1.0240000486373901, 0.0, 0.0, 0.0, 0.0, 0.0, 1.706216998444196E9, 0.0, 2024-01-25 13:09:58.444
70.0, -4632.524317514151, -254.07197343977168, 768.6092792935669, -2685.4145937333815, -0.06400000303983688, -0.0800000037997961, 1.0240000486373901, 0.0, 0.0, 0.0, 0.0, 0.0, 1.706216998451766E9, 0.0, 2024-01-25 13:09:58.451
70.0, -4740.659784832969, -400.27214250760153, 1000.4325878969394, -2877.2490220605396, -0.06400000303983688, -0.0800000037997961, 1.0240000486373901, 0.0, 0.0, 0.0, 0.0, 0.0, 1.706216998451766E9, 0.0, 2024-01-25 13:09:58.451
71.0, -4597.612351427786, -156.6887184935622, 868.8647774057463, -3049.746297666803, -0.06400000303983688, -0.0800000037997961, 1.0240000486373901, 0.0, 0.0, 0.0, 0.0, 0.0, 1.706216998457535E9, 0.0, 2024-01-25 13:09:58.457
71.0, -4706.058230442926, -292.39472828572616, 749.3787137214094, -3232.30577410385, -0.06400000303983688, -0.0800000037997961, 1.0240000486373901, 0.0, 0.0, 0.0, 0.0, 0.0, 1.706216998457535E9, 0.0, 2024-01-25 13:09:58.457
72.0, -4874.409826948307, -497.5805994546972, 882.5434614936821, -2987.2170403576456, -0.06400000303983688, -0.0800000037997961, 1.0240000486373901, 0.0, 0.0, 0.0, 0.0, 0.0, 1.706216998465093E9, 0.0, 2024-01-25 13:09:58.465
72.0, -5101.116952412296, -665.9677250096574, 796.5089329630136, -3082.698556176387, -0.06400000303983688, -0.0800000037997961, 1.0240000486373901, 0.0, 0.0, 0.0, 0.0, 0.0, 1.706216998465093E9, 0.0, 2024-01-25 13:09:58.465
73.0, -4908.160554098431, -496.6100954161957, 1038.065331201069, -2923.292800365016, -0.06400000303983688, -0.0800000037997961, 1.0240000486373901, 0.0, 0.0, 0.0, 0.0, 0.0, 1.706216998472117E9, 0.0, 2024-01-25 13:09:58.472
73.0, -5136.324370595161, -300.3158363918774, 1144.7815064867027, -2758.2267059707083, -0.06400000303983688, -0.0800000037997961, 1.0240000486373901, 0.0, 0.0, 0.0, 0.0, 0.0, 1.706216998472117E9, 0.0, 2024-01-25 13:09:58.472
74.0, -5318.294812789187, -412.77649800945073, 982.636273957789, -2896.638533380814, -0.06400000303983688, -0.0800000037997961, 1.0240000486373901, 0.0, 0.0, 0.0, 0.0, 0.0, 1.706216998489216E9, 0.0, 2024-01-25 13:09:58.489
74.0, -5233.889010689221, -295.85974559467286, 1217.6515871733427, -2755.1880372567102, -0.06400000303983688, -0.0800000037997961, 1.0240000486373901, 0.0, 0.0, 0.0, 0.0, 0.0, 1.706216998489216E9, 0.0, 2024-01-25 13:09:58.489
75.0, -5163.337667975109, -309.86193102877587, 1206.6076626041904, -2761.186836785637, -0.06400000303983688, -0.0800000037997961, 1.0240000486373901, 0.0, 0.0, 0.0, 0.0, 0.0, 1.70621699849544E9, 0.0, 2024-01-25 13:09:58.495
75.0, -5275.078398851212, -369.259022125043, 1449.5048149763606, -2905.6554321739823, -0.06400000303983688, -0.0800000037997961, 1.0240000486373901, 0.0, 0.0, 0.0, 0.0, 0.0, 1.70621699849544E9, 0.0, 2024-01-25 13:09:58.495
76.0, -5102.164124399889, -144.1095649925992, 1342.6278239926323, -3057.4448817255907, -0.06400000303983688, -0.0800000037997961, 1.0240000486373901, 0.0, 0.0, 0.0, 0.0, 0.0, 1.706216998501579E9, 0.0, 2024-01-25 13:09:58.501
76.0, -5237.451265397016, -303.53402030374855, 1179.8673779210076, -3284.879417730961, -0.06400000303983688, -0.0800000037997961, 1.0240000486373901, 0.0, 0.0, 0.0, 0.0, 0.0, 1.706216998501579E9, 0.0, 2024-01-25 13:09:58.501
77.0, -5443.564631754998, -79.02221611374989, 1314.6926412736066, -3071.7892680056393, -0.06400000303983688, -0.0800000037997961, 1.0240000486373901, 0.0, 0.0, 0.0, 0.0, 0.0, 1.706216998509088E9, 0.0, 2024-01-25 13:09:58.509
77.0, -5575.2857781443745, -139.11305865179747, 1314.7861387724988, -3064.593700490892, -0.06400000303983688, -0.0800000037997961, 1.0240000486373901, 0.0, 0.0, 0.0, 0.0, 0.0, 1.706216998509088E9, 0.0, 2024-01-25 13:09:58.509
78.0, -5367.58669420518, 72.00803374685347, 1111.1018374357373, -2858.308298734948, -0.06400000303983688, -0.0800000037997961, 1.0240000486373901, 0.0, 0.0, 0.0, 0.0, 0.0, 1.706216998515094E9, 0.0, 2024-01-25 13:09:58.515
78.0, -5563.699568081647, 267.2177217840217, 1229.7071546805091, -2687.781950405333, -0.06400000303983688, -0.0800000037997961, 1.0240000486373901, 0.0, 0.0, 0.0, 0.0, 0.0, 1.706216998515094E9, 0.0, 2024-01-25 13:09:58.515
79.0, -5729.943730961997, 171.2986376704648, 1069.2635766314343, -2791.034978331998, -0.06400000303983688, -0.0800000037997961, 1.0240000486373901, 0.0, 0.0, 0.0, 0.0, 0.0, 1.706216998520186E9, 0.0, 2024-01-25 13:09:58.520
79.0, -5622.54502393445, 309.09899143781513, 843.1099563608877, -2618.7901459727436, -0.06400000303983688, -0.0800000037997961, 1.0240000486373901, 0.0, 0.0, 0.0, 0.0, 0.0, 1.706216998520186E9, 0.0, 2024-01-25 13:09:58.520
80.0, -5514.523623564281, 344.2110421718098, 860.0535731101409, -2577.3988032131456, -0.06400000303983688, -0.0800000037997961, 1.0240000486373901, 0.0, 0.0, 0.0, 0.0, 0.0, 1.706216998531308E9, 0.0, 2024-01-25 13:09:58.531
80.0, -5666.666493661702, 197.46484771044925, 1049.402837916743, -2777.4610114428215, -0.06400000303983688, -0.0800000037997961, 1.0240000486373901, 0.0, 0.0, 0.0, 0.0, 0.0, 1.706216998531308E9, 0.0, 2024-01-25 13:09:58.531
81.0, -5491.044531642459, 416.4023310164921, 956.3260777695104, -2966.997271247208, -0.06400000303983688, -0.0800000037997961, 1.0240000486373901, 0.0, 0.0, 0.0, 0.0, 0.0, 1.706216998537111E9, 0.0, 2024-01-25 13:09:58.537
81.0, -5606.476543774828, 323.64159241551533, 840.923984836787, -3103.9748470243067, -0.06400000303983688, -0.0800000037997961, 1.0240000486373901, 0.0, 0.0, 0.0, 0.0, 0.0, 1.706216998537111E9, 0.0, 2024-01-25 13:09:58.537
82.0, -5763.55608181376, 125.71860696049407, 1021.2750503499992, -2868.1535853683017, -0.06400000303983688, -0.0800000037997961, 1.0240000486373901, 0.0, 0.0, 0.0, 0.0, 0.0, 1.706216998547095E9, 0.0, 2024-01-25 13:09:58.547
82.0, -5996.17972900765, -69.28538657911122, 888.9742194674909, -2987.7948549007997, -0.06400000303983688, -0.0800000037997961, 1.0240000486373901, 0.0, 0.0, 0.0, 0.0, 0.0, 1.706216998547095E9, 0.0, 2024-01-25 13:09:58.547
83.0, -5791.397767033894, 145.28015367873013, 663.8976903841831, -2812.86477437336, -0.06400000303983688, -0.0800000037997961, 1.0240000486373901, 0.0, 0.0, 0.0, 0.0, 0.0, 1.706216998563114E9, 0.0, 2024-01-25 13:09:58.563
83.0, -6023.436119884718, 296.25056514004245, 807.9156278278679, -2635.1241590292193, -0.06400000303983688, -0.0800000037997961, 1.0240000486373901, 0.0, 0.0, 0.0, 0.0, 0.0, 1.706216998563114E9, 0.0, 2024-01-25 13:09:58.563
84.0, -6201.6030838238075, 206.16572495736182, 628.6640929016285, -2769.231361590326, -0.06400000303983688, -0.0800000037997961, 1.0240000486373901, 0.0, 0.0, 0.0, 0.0, 0.0, 1.706216998569198E9, 0.0, 2024-01-25 13:09:58.569
84.0, -6090.965623434633, 348.25200407393277, 868.84420795599, -2606.807506514713, -0.06400000303983688, -0.0800000037997961, 1.0240000486373901, 0.0, 0.0, 0.0, 0.0, 0.0, 1.706216998569198E9, 0.0, 2024-01-25 13:09:58.569
85.0, -6007.810817869846, 350.35943769896403, 884.9313876153901, -2581.2808193671517, -0.06400000303983688, -0.0800000037997961, 1.0240000486373901, 0.0, 0.0, 0.0, 0.0, 0.0, 1.706216998579097E9, 0.0, 2024-01-25 13:09:58.579
85.0, -6176.82811656734, 180.8073333078064, 1075.7130341050215, -2789.660565098282, -0.06400000303983688, -0.0800000037997961, 1.0240000486373901, 0.0, 0.0, 0.0, 0.0, 0.0, 1.706216998579097E9, 0.0, 2024-01-25 13:09:58.579
86.0, -5992.230394654442, 404.49074965761974, 950.360937340185, -2969.349668319337, -0.06400000303983688, -0.0800000037997961, 1.0240000486373901, 0.0, 0.0, 0.0, 0.0, 0.0, 1.706216998593574E9, 0.0, 2024-01-25 13:09:58.593
86.0, -6077.687108641956, 309.88998027844355, 860.1059317095205, -3098.0171863948926, -0.06400000303983688, -0.0800000037997961, 1.0240000486373901, 0.0, 0.0, 0.0, 0.0, 0.0, 1.706216998593574E9, 0.0, 2024-01-25 13:09:58.593
87.0, -6245.301944856066, 85.92981133190915, 979.7546810419299, -2906.371623015497, -0.06400000303983688, -0.0800000037997961, 1.0240000486373901, 0.0, 0.0, 0.0, 0.0, 0.0, 1.706216998601098E9, 0.0, 2024-01-25 13:09:58.601
87.0, -6473.475111102685, -72.83081173710525, 899.8984672380611, -2984.754316236824, -0.06400000303983688, -0.0800000037997961, 1.0240000486373901, 0.0, 0.0, 0.0, 0.0, 0.0, 1.706216998601098E9, 0.0, 2024-01-25 13:09:58.601
88.0, -6296.843376095407, 168.84526329953223, 664.4137965780683, -2822.29680206161, -0.06400000303983688, -0.0800000037997961, 1.0240000486373901, 0.0, 0.0, 0.0, 0.0, 0.0, 1.706216998606878E9, 0.0, 2024-01-25 13:09:58.606
88.0, -6498.162190710194, 344.34193867025897, 830.8561741560698, -2613.4701382857747, -0.06400000303983688, -0.0800000037997961, 1.0240000486373901, 0.0, 0.0, 0.0, 0.0, 0.0, 1.706216998606878E9, 0.0, 2024-01-25 13:09:58.606
89.0, -6679.070501316804, 220.0257941931486, 641.0431617549621, -2737.064482071437, -0.06400000303983688, -0.0800000037997961, 1.0240000486373901, 0.0, 0.0, 0.0, 0.0, 0.0, 1.706216998622197E9, 0.0, 2024-01-25 13:09:58.622
89.0, -6586.500497613568, 344.62056121695787, 880.01154922368, -2565.126321508549, -0.06400000303983688, -0.0800000037997961, 1.0240000486373901, 0.0, 0.0, 0.0, 0.0, 0.0, 1.706216998622197E9, 0.0, 2024-01-25 13:09:58.622
90.0, -6434.602590963244, 404.3935122587718, 919.3122879080474, -2534.8163023176603, -0.06400000303983688, -0.0800000037997961, 1.0240000486373901, 0.0, 0.0, 0.0, 0.0, 0.0, 1.70621699862882E9, 0.0, 2024-01-25 13:09:58.628
90.0, -6674.6144105196, 200.7036010720767, 1064.841144933831, -2305.4201887855306, -0.06400000303983688, -0.0800000037997961, 1.0240000486373901, 0.0, 0.0, 0.0, 0.0, 0.0, 1.70621699862882E9, 0.0, 2024-01-25 13:09:58.628
91.0, -6484.863106467761, 440.61818322958425, 975.7436383394524, -2474.7909080288373, -0.06400000303983688, -0.09600000455975533, 1.0240000486373901, 0.0, 0.0, 0.0, 0.0, 0.0, 1.706216998654125E9, 0.0, 2024-01-25 13:09:58.654
91.0, -6527.067877467722, 335.549433874432, 863.5840386683121, -2596.8911617822014, -0.06400000303983688, -0.09600000455975533, 1.0240000486373901, 0.0, 0.0, 0.0, 0.0, 0.0, 1.706216998654125E9, 0.0, 2024-01-25 13:09:58.654
92.0, -6722.847900248133, 117.35619065957144, 992.1561892949976, -2364.331092887558, -0.06400000303983688, -0.09600000455975533, 1.0240000486373901, 0.0, 0.0, 0.0, 0.0, 0.0, 1.706216998661106E9, 0.0, 2024-01-25 13:09:58.661
92.0, -6965.673994521145, -71.43582905363292, 892.2802910283208, -2498.1017044526525, -0.06400000303983688, -0.09600000455975533, 1.0240000486373901, 0.0, 0.0, 0.0, 0.0, 0.0, 1.706216998661106E9, 0.0, 2024-01-25 13:09:58.661
93.0, -6752.163106050808, 157.08701783884317, 715.0782212777995, -2291.618087999057, -0.06400000303983688, -0.09600000455975533, 1.0240000486373901, 0.0, 0.0, 0.0, 0.0, 0.0, 1.70621699866808E9, 0.0, 2024-01-25 13:09:58.668
93.0, -6969.039904481266, 342.5505265914835, 824.3076093336567, -2108.970723913051, -0.06400000303983688, -0.09600000455975533, 1.0240000486373901, 0.0, 0.0, 0.0, 0.0, 0.0, 1.70621699866808E9, 0.0, 2024-01-25 13:09:58.668
94.0, -7148.85990420077, 219.04968030471355, 618.4466862226836, -2233.354186589364, -0.06400000303983688, -0.09600000455975533, 1.0240000486373901, 0.0, 0.0, 0.0, 0.0, 0.0, 1.706216998684212E9, 0.0, 2024-01-25 13:09:58.684
94.0, -7040.38784588594, 361.7380833141506, 393.4187758387998, -2080.968222994823, -0.06400000303983688, -0.09600000455975533, 1.0240000486373901, 0.0, 0.0, 0.0, 0.0, 0.0, 1.706216998684212E9, 0.0, 2024-01-25 13:09:58.684
95.0, -6927.878565568943, 389.74058423237875, 418.1787834954448, -2055.377957548015, -0.06400000303983688, -0.09600000455975533, 1.0240000486373901, 0.0, 0.0, 0.0, 0.0, 0.0, 1.706216998688721E9, 0.0, 2024-01-25 13:09:58.688
95.0, -6683.070324319415, 196.60093082068488, 592.2019382836297, -1811.6580271855928, -0.06400000303983688, -0.09600000455975533, 1.0240000486373901, 0.0, 0.0, 0.0, 0.0, 0.0, 1.706216998688721E9, 0.0, 2024-01-25 13:09:58.688
96.0, -6463.231525124051, 403.08080737432465, 472.2465171548538, -1999.982559404336, -0.06400000303983688, -0.09600000455975533, 1.0240000486373901, 0.0, 0.0, 0.0, 0.0, 0.0, 1.70621699869611E9, 0.0, 2024-01-25 13:09:58.696
96.0, -6550.771363386884, 354.83235804596916, 395.60100746294484, -2088.472332255915, -0.06400000303983688, -0.09600000455975533, 1.0240000486373901, 0.0, 0.0, 0.0, 0.0, 0.0, 1.70621699869611E9, 0.0, 2024-01-25 13:09:58.696
97.0, -6748.675649342127, 121.39902251167223, 524.984716380015, -1892.5258839274757, -0.06400000303983688, -0.09600000455975533, 1.0240000486373901, 0.0, 0.0, 0.0, 0.0, 0.0, 1.706216998703092E9, 0.0, 2024-01-25 13:09:58.703
97.0, -6974.189746720251, -89.6715812375769, 387.7285180562176, -2013.7715705409646, -0.06400000303983688, -0.09600000455975533, 1.0240000486373901, 0.0, 0.0, 0.0, 0.0, 0.0, 1.706216998703092E9, 0.0, 2024-01-25 13:09:58.703
98.0, -6735.8870614436455, 129.80818756204098, 232.15428974945098, -1814.4872615020722, -0.06400000303983688, -0.09600000455975533, 1.0240000486373901, 0.0, 0.0, 0.0, 0.0, 0.0, 1.706216998712111E9, 0.0, 2024-01-25 13:09:58.712
98.0, -6951.776526285801, -105.940146044828, 371.31783705065027, -1588.7562499265186, -0.06400000303983688, -0.09600000455975533, 1.0240000486373901, 0.0, 0.0, 0.0, 0.0, 0.0, 1.706216998712111E9, 0.0, 2024-01-25 13:09:58.712
99.0, -7137.7935402318835, -259.71548247290775, 153.16760268528014, -1766.2874308731407, -0.06400000303983688, -0.09600000455975533, 1.0240000486373901, 0.0, 0.0, 0.0, 0.0, 0.0, 1.706216998720196E9, 0.0, 2024-01-25 13:09:58.720
99.0, -7008.651054861955, -89.93150428449735, -37.31111190794036, -1538.2133719753474, -0.06400000303983688, -0.09600000455975533, 1.0240000486373901, 0.0, 0.0, 0.0, 0.0, 0.0, 1.706216998720196E9, 0.0, 2024-01-25 13:09:58.720
100.0, -6905.887953829486, -42.12249320093542, 2.7675259672105312, -1500.696565569844, -0.06400000303983688, -0.09600000455975533, 1.0240000486373901, 0.0, 0.0, 0.0, 0.0, 0.0, 1.70621699874174E9, 0.0, 2024-01-25 13:09:58.741
100.0, -7123.561350950506, -260.6336279120296, 133.52003826806322, -1268.1888552745804, -0.06400000303983688, -0.09600000455975533, 1.0240000486373901, 0.0, 0.0, 0.0, 0.0, 0.0, 1.70621699874174E9, 0.0, 2024-01-25 13:09:58.741
0.0, 1387.6001209598035, 1426.0406826543622, 1461.2761500868946, 1485.3031373522244, -0.06400000303983688, -0.09600000455975533, 1.0240000486373901, 0.0, 0.0, 0.0, 0.0, 0.0, 1.706216998759092E9, 0.0, 2024-01-25 13:09:58.759
1.0, 1348.0805981280282, 1371.7186357979663, 1413.487708453089, 1395.7886319127865, -0.06400000303983688, -0.0800000037997961, 1.0240000486373901, 0.0, 0.0, 0.0, 0.0, 0.0, 1.706216998766094E9, 0.0, 2024-01-25 13:09:58.766
1.0, 1143.6053079506382, 1595.314164498821, 1542.0635989797302, 1578.0844454029575, -0.06400000303983688, -0.0800000037997961, 1.0240000486373901, 0.0, 0.0, 0.0, 0.0, 0.0, 1.706216998766094E9, 0.0, 2024-01-25 13:09:58.766
2.0, 1359.5957500915974, 1388.5781047982164, 1391.7738493103534, 1441.9240377661772, -0.06400000303983688, -0.0800000037997961, 1.0240000486373901, 0.0, 0.0, 0.0, 0.0, 0.0, 1.706216998772099E9, 0.0, 2024-01-25 13:09:58.772
2.0, 1143.22196820518, 1172.7989670047536, 1206.9648230499588, 1653.493918159511, -0.06400000303983688, -0.0800000037997961, 1.0240000486373901, 0.0, 0.0, 0.0, 0.0, 0.0, 1.706216998772099E9, 0.0, 2024-01-25 13:09:58.772
3.0, 915.566778102424, 1358.8459001504816, 1350.979020593688, 1835.9505473477766, -0.06400000303983688, -0.0800000037997961, 1.0240000486373901, 0.0, 0.0, 0.0, 0.0, 0.0, 1.706216998776235E9, 0.0, 2024-01-25 13:09:58.776
3.0, 1159.6438689106144, 1179.8711178209633, 1135.7234687940218, 1658.4044068013318, -0.06400000303983688, -0.0800000037997961, 1.0240000486373901, 0.0, 0.0, 0.0, 0.0, 0.0, 1.706216998776235E9, 0.0, 2024-01-25 13:09:58.776
4.0, 1295.0693862061016, 1367.909547693096, 908.5151967359707, 1855.6729097641073, -0.06400000303983688, -0.0800000037997961, 1.0240000486373901, 0.0, 0.0, 0.0, 0.0, 0.0, 1.706216998781412E9, 0.0, 2024-01-25 13:09:58.781
4.0, 1439.2219600481912, 1406.3501093876548, 950.9312720834278, 1881.6633445061743, -0.06400000303983688, -0.0800000037997961, 1.0240000486373901, 0.0, 0.0, 0.0, 0.0, 0.0, 1.706216998781412E9, 0.0, 2024-01-25 13:09:58.781
5.0, 1640.4005284146406, 1163.1967738685198, 1050.7697713505477, 2108.3517704703845, -0.06400000303983688, -0.0800000037997961, 1.0240000486373901, 0.0, 0.0, 0.0, 0.0, 0.0, 1.706216998835087E9, 0.0, 2024-01-25 13:09:58.835
5.0, 1817.4137332173996, 1381.6405903804116, 941.4057468962856, 1918.3779423711821, -0.06400000303983688, -0.0800000037997961, 1.0240000486373901, 0.0, 0.0, 0.0, 0.0, 0.0, 1.706216998835087E9, 0.0, 2024-01-25 13:09:58.835
6.0, 1798.1495085456409, 1353.5913407127373, 908.4160893871449, 1809.35237886291, -0.06400000303983688, -0.0800000037997961, 1.0240000486373901, 0.0, 0.0, 0.0, 0.0, 0.0, 1.706216998842094E9, 0.0, 2024-01-25 13:09:58.842
6.0, 1595.7311633438803, 1552.9336182009429, 986.5968280108646, 1979.272863399703, -0.06400000303983688, -0.0800000037997961, 1.0240000486373901, 0.0, 0.0, 0.0, 0.0, 0.0, 1.706216998842094E9, 0.0, 2024-01-25 13:09:58.842
7.0, 1794.2338332920335, 1341.728378053289, 840.1703949957155, 1830.4865535125136, -0.06400000303983688, -0.0800000037997961, 1.0240000486373901, 0.0, 0.0, 0.0, 0.0, 0.0, 1.706216998849415E9, 0.0, 2024-01-25 13:09:58.849
7.0, 1557.33548044879, 1576.0181506774388, 658.2261321013793, 2072.248646248132, -0.06400000303983688, -0.0800000037997961, 1.0240000486373901, 0.0, 0.0, 0.0, 0.0, 0.0, 1.706216998849415E9, 0.0, 2024-01-25 13:09:58.849
8.0, 1356.9142418233678, 1819.5623057419434, 817.1625304683112, 2287.156387351919, -0.06400000303983688, -0.0800000037997961, 1.0240000486373901, 0.0, 0.0, 0.0, 0.0, 0.0, 1.706216998853809E9, 0.0, 2024-01-25 13:09:58.853
8.0, 1565.0434142574668, 1580.0161037300713, 1016.0055313124321, 2060.815772083588, -0.06400000303983688, -0.0800000037997961, 1.0240000486373901, 0.0, 0.0, 0.0, 0.0, 0.0, 1.706216998853809E9, 0.0, 2024-01-25 13:09:58.853
9.0, 1755.3781427023932, 1787.2252607750706, 851.3433461133391, 2299.3278917577118, -0.06400000303983688, -0.0800000037997961, 1.0240000486373901, 0.0, 0.0, 0.0, 0.0, 0.0, 1.706216998859415E9, 0.0, 2024-01-25 13:09:58.859
9.0, 1862.6702625812031, 1841.7174730794504, 906.6396369081922, 2354.635402252432, -0.06400000303983688, -0.0800000037997961, 1.0240000486373901, 0.0, 0.0, 0.0, 0.0, 0.0, 1.706216998859415E9, 0.0, 2024-01-25 13:09:58.859
10.0, 2090.387161033228, 2079.689177209977, 998.2316567730159, 2538.737587421201, -0.06400000303983688, -0.0800000037997961, 1.0240000486373901, 0.0, 0.0, 0.0, 0.0, 0.0, 1.706216998863445E9, 0.0, 2024-01-25 13:09:58.863
10.0, 2296.2200348945335, 1834.7799586616457, 899.6273244912736, 2369.8006965727545, -0.06400000303983688, -0.0800000037997961, 1.0240000486373901, 0.0, 0.0, 0.0, 0.0, 0.0, 1.706216998863445E9, 0.0, 2024-01-25 13:09:58.863
11.0, 2293.8414585227147, 1789.8675000937656, 890.2364357025363, 2291.075802505482, -0.06400000303983688, -0.0800000037997961, 1.0240000486373901, 0.0, 0.0, 0.0, 0.0, 0.0, 1.706216998879079E9, 0.0, 2024-01-25 13:09:58.879
11.0, 2074.694540819153, 1550.4877236299217, 956.9431612621993, 2485.6571873500943, -0.06400000303983688, -0.0800000037997961, 1.0240000486373901, 0.0, 0.0, 0.0, 0.0, 0.0, 1.706216998879079E9, 0.0, 2024-01-25 13:09:58.879
12.0, 2268.873886418529, 1777.7838833369315, 808.1119725755416, 2309.8501002830453, -0.06400000303983688, -0.0800000037997961, 1.0240000486373901, 0.0, 0.0, 0.0, 0.0, 0.0, 1.706216998942091E9, 0.0, 2024-01-25 13:09:58.942
12.0, 2055.7313780938275, 1601.079220280517, 664.4007069282234, 2548.964343850035, -0.06400000303983688, -0.0800000037997961, 1.0240000486373901, 0.0, 0.0, 0.0, 0.0, 0.0, 1.706216998942091E9, 0.0, 2024-01-25 13:09:58.942
13.0, 1842.2354492233135, 1812.800566622056, 814.7540348968469, 2755.4049514541402, -0.06400000303983688, -0.0800000037997961, 1.0240000486373901, 0.0, 0.0, 0.0, 0.0, 0.0, 1.706216998949221E9, 0.0, 2024-01-25 13:09:58.949
13.0, 2077.1123861405067, 1579.9151264312677, 1006.5435844245367, 2526.401527417358, -0.06400000303983688, -0.0800000037997961, 1.0240000486373901, 0.0, 0.0, 0.0, 0.0, 0.0, 1.706216998949221E9, 0.0, 2024-01-25 13:09:58.949
14.0, 2178.792786135804, 1745.274802972097, 814.2659779526293, 2747.6614885958843, -0.06400000303983688, -0.0800000037997961, 1.0240000486373901, 0.0, 0.0, 0.0, 0.0, 0.0, 1.706216998953405E9, 0.0, 2024-01-25 13:09:58.953
14.0, 2349.401412264444, 1850.7904703719541, 885.8233537548222, 2834.5449744164944, -0.06400000303983688, -0.0800000037997961, 1.0240000486373901, 0.0, 0.0, 0.0, 0.0, 0.0, 1.706216998953405E9, 0.0, 2024-01-25 13:09:58.953
15.0, 2547.015855973121, 2043.7674381355755, 983.6684863455594, 2987.9538006489165, -0.06400000303983688, -0.0800000037997961, 1.0240000486373901, 0.0, 0.0, 0.0, 0.0, 0.0, 1.706216998960079E9, 0.0, 2024-01-25 13:09:58.960
15.0, 2764.1432277006097, 1827.9658609423786, 875.2169974804856, 2832.9854361349717, -0.06400000303983688, -0.0800000037997961, 1.0240000486373901, 0.0, 0.0, 0.0, 0.0, 0.0, 1.706216998960079E9, 0.0, 2024-01-25 13:09:58.960
16.0, 2760.459426244255, 1795.6568652251735, 857.2168589937501, 2809.861634708941, -0.06400000303983688, -0.0800000037997961, 1.0240000486373901, 0.0, 0.0, 0.0, 0.0, 0.0, 1.706216998967087E9, 0.0, 2024-01-25 13:09:58.967
16.0, 2546.9223584742285, 2032.701074166689, 967.4223609380424, 2965.865951510612, -0.06400000303983688, -0.0800000037997961, 1.0240000486373901, 0.0, 0.0, 0.0, 0.0, 0.0, 1.706216998967087E9, 0.0, 2024-01-25 13:09:58.967
17.0, 2749.8755093696527, 2268.958034167532, 807.9436770775355, 2771.471561663784, -0.06400000303983688, -0.0800000037997961, 1.0240000486373901, 0.0, 0.0, 0.0, 0.0, 0.0, 1.706216998984851E9, 0.0, 2024-01-25 13:09:58.984
17.0, 2524.6232049884275, 2110.7733556916937, 673.1819920241833, 2576.1945554274134, -0.06400000303983688, -0.0800000037997961, 1.0240000486373901, 0.0, 0.0, 0.0, 0.0, 0.0, 1.706216998984851E9, 0.0, 2024-01-25 13:09:58.984
18.0, 2345.194024814293, 2305.7100310320966, 830.3381980122067, 2781.191561648622, -0.06400000303983688, -0.0800000037997961, 1.0240000486373901, 0.0, 0.0, 0.0, 0.0, 0.0, 1.706216998990084E9, 0.0, 2024-01-25 13:09:58.990
18.0, 2527.9404962491244, 2529.621581279207, 1030.4265855415724, 3016.7080214582384, -0.06400000303983688, -0.0800000037997961, 1.0240000486373901, 0.0, 0.0, 0.0, 0.0, 0.0, 1.706216998990084E9, 0.0, 2024-01-25 13:09:58.990
22.0, 2685.236948485486, 2749.232246577274, 814.0864627547562, 2830.52271201415, -0.06400000303983688, -0.0800000037997961, 1.0240000486373901, 0.0, 0.0, 0.0, 0.0, 0.0, 1.706216998995978E9, 0.0, 2024-01-25 13:09:58.995
22.0, 2516.101842939388, 2577.258556964807, 743.7744736378081, 2609.1524237869307, -0.06400000303983688, -0.0800000037997961, 1.0240000486373901, 0.0, 0.0, 0.0, 0.0, 0.0, 1.706216998995978E9, 0.0, 2024-01-25 13:09:58.995
23.0, 2346.9723472432233, 2788.613393110689, 894.509271401912, 2827.67664814787, -0.06400000303983688, -0.0800000037997961, 1.0240000486373901, 0.0, 0.0, 0.0, 0.0, 0.0, 1.706216999003084E9, 0.0, 2024-01-25 13:09:59.003
23.0, 2498.748707144987, 2544.904682448134, 1058.9451926536858, 3047.212515446823, -0.06400000303983688, -0.0800000037997961, 1.0240000486373901, 0.0, 0.0, 0.0, 0.0, 0.0, 1.706216999003084E9, 0.0, 2024-01-25 13:09:59.003
24.0, 2725.5549399578013, 2772.9488221462816, 901.1382440733723, 2806.435886349529, -0.06400000303983688, -0.0800000037997961, 1.0240000486373901, 0.0, 0.0, 0.0, 0.0, 0.0, 1.706216999009419E9, 0.0, 2024-01-25 13:09:59.009
24.0, 2837.783727778122, 2828.435847838875, 978.0361970122904, 2887.384150940459, -0.06400000303983688, -0.0800000037997961, 1.0240000486373901, 0.0, 0.0, 0.0, 0.0, 0.0, 1.706216999009419E9, 0.0, 2024-01-25 13:09:59.009
25.0, 3048.188629335258, 3051.5489294454455, 1049.1634843195789, 3075.42445076257, -0.06400000303983688, -0.0800000037997961, 1.0240000486373901, 0.0, 0.0, 0.0, 0.0, 0.0, 1.706216999015428E9, 0.0, 2024-01-25 13:09:59.015
25.0, 3238.4896986805834, 3294.9902372611687, 936.2128958078101, 2889.0820655203424, -0.06400000303983688, -0.0800000037997961, 1.0240000486373901, 0.0, 0.0, 0.0, 0.0, 0.0, 1.706216999015428E9, 0.0, 2024-01-25 13:09:59.015
26.0, 3261.8958625532687, 3315.7597716650926, 960.9654236645438, 2861.2796492497437, -0.06400000303983688, -0.0800000037997961, 1.0240000486373901, 0.0, 0.0, 0.0, 0.0, 0.0, 1.706216999021164E9, 0.0, 2024-01-25 13:09:59.021
26.0, 3051.073962151073, 3518.3071434153244, 1045.5114720128477, 3037.7673981087282, -0.06400000303983688, -0.0800000037997961, 1.0240000486373901, 0.0, 0.0, 0.0, 0.0, 0.0, 1.706216999021164E9, 0.0, 2024-01-25 13:09:59.021
27.0, 3203.048536750488, 3719.300586733967, 826.2018686612137, 2804.7884604190476, -0.06400000303983688, -0.0800000037997961, 1.0240000486373901, 0.0, 0.0, 0.0, 0.0, 0.0, 1.706216999026078E9, 0.0, 2024-01-25 13:09:59.026
27.0, 3011.9041199651547, 3569.3324684607796, 738.0318572558463, 2627.3432971714064, -0.06400000303983688, -0.0800000037997961, 1.0240000486373901, 0.0, 0.0, 0.0, 0.0, 0.0, 1.706216999026078E9, 0.0, 2024-01-25 13:09:59.026
28.0, 2834.378548868466, 3332.159232970793, 892.869325271342, 2851.1632198696025, -0.06400000303983688, -0.0800000037997961, 1.0240000486373901, 0.0, 0.0, 0.0, 0.0, 0.0, 1.706216999035093E9, 0.0, 2024-01-25 13:09:59.035
28.0, 2968.13233088376, 3509.5651272688992, 1051.39246469317, 3026.4972095922567, -0.06400000303983688, -0.0800000037997961, 1.0240000486373901, 0.0, 0.0, 0.0, 0.0, 0.0, 1.706216999035093E9, 0.0, 2024-01-25 13:09:59.035
29.0, 3182.533315543551, 3739.610113443341, 910.1009143171832, 2817.0422426238656, -0.06400000303983688, -0.0800000037997961, 1.0240000486373901, 0.0, 0.0, 0.0, 0.0, 0.0, 1.706216999045068E9, 0.0, 2024-01-25 13:09:59.045
29.0, 3357.353069022298, 3846.988251021132, 1016.6263547050767, 2900.2830658876337, -0.06400000303983688, -0.0800000037997961, 1.0240000486373901, 0.0, 0.0, 0.0, 0.0, 0.0, 1.706216999045068E9, 0.0, 2024-01-25 13:09:59.045
30.0, 3567.866427678149, 4035.8588086334057, 1050.923107248731, 3043.777417337522, -0.06400000303983688, -0.0800000037997961, 1.0240000486373901, 0.0, 0.0, 0.0, 0.0, 0.0, 1.70621699905359E9, 0.0, 2024-01-25 13:09:59.053
30.0, 3747.2544689527713, 4250.469227690715, 925.9375206795521, 2880.3232198241167, -0.06400000303983688, -0.0800000037997961, 1.0240000486373901, 0.0, 0.0, 0.0, 0.0, 0.0, 1.70621699905359E9, 0.0, 2024-01-25 13:09:59.053
31.0, 3755.1063889097422, 4255.250689784065, 956.1091635720804, 2861.8817731426097, -0.06400000303983688, -0.0800000037997961, 1.0240000486373901, 0.0, 0.0, 0.0, 0.0, 0.0, 1.706216999057713E9, 0.0, 2024-01-25 13:09:59.057
31.0, 3545.4326377939433, 4021.5929602524266, 1054.6312180547975, 3026.0764708472416, -0.06400000303983688, -0.0800000037997961, 1.0240000486373901, 0.0, 0.0, 0.0, 0.0, 0.0, 1.706216999057713E9, 0.0, 2024-01-25 13:09:59.057
32.0, 3653.8186784097925, 4196.7736140768975, 1297.6798363751732, 2786.7135239331983, -0.06400000303983688, -0.0800000037997961, 1.0240000486373901, 0.0, 0.0, 0.0, 0.0, 0.0, 1.706216999089115E9, 0.0, 2024-01-25 13:09:59.089
32.0, 3510.088713262696, 4068.92326414166, 1261.0680857589468, 2633.8432432943955, -0.06400000303983688, -0.0800000037997961, 1.0240000486373901, 0.0, 0.0, 0.0, 0.0, 0.0, 1.706216999089115E9, 0.0, 2024-01-25 13:09:59.089
33.0, 3354.7631883029826, 4302.579123723321, 1420.2139185233973, 2859.297502273228, -0.06400000303983688, -0.0800000037997961, 1.0240000486373901, 0.0, 0.0, 0.0, 0.0, 0.0, 1.70621699909308E9, 0.0, 2024-01-25 13:09:59.093
33.0, 3472.095069612842, 4491.313174987212, 1577.390693961177, 3055.728267645929, -0.06400000303983688, -0.0800000037997961, 1.0240000486373901, 0.0, 0.0, 0.0, 0.0, 0.0, 1.70621699909308E9, 0.0, 2024-01-25 13:09:59.093
34.0, 3679.693176253233, 4256.165095323231, 1394.6909712757915, 2823.142019451596, -0.06400000303983688, -0.0800000037997961, 1.0240000486373901, 0.0, 0.0, 0.0, 0.0, 0.0, 1.706216999098408E9, 0.0, 2024-01-25 13:09:59.098
34.0, 3863.159578429535, 4372.264679597691, 1506.6504862993024, 2945.532115451526, -0.06400000303983688, -0.0800000037997961, 1.0240000486373901, 0.0, 0.0, 0.0, 0.0, 0.0, 1.706216999098408E9, 0.0, 2024-01-25 13:09:59.098
35.0, 4048.735284180846, 4540.625625852961, 1550.7046378273517, 3078.233115629293, -0.06400000303983688, -0.0800000037997961, 1.0240000486373901, 0.0, 0.0, 0.0, 0.0, 0.0, 1.706216999104083E9, 0.0, 2024-01-25 13:09:59.104
35.0, 4206.312228913885, 4748.784717486706, 1408.6912867599167, 2888.124651131686, -0.06400000303983688, -0.0800000037997961, 1.0240000486373901, 0.0, 0.0, 0.0, 0.0, 0.0, 1.706216999104083E9, 0.0, 2024-01-25 13:09:59.104
36.0, 4271.130304995924, 4794.499384595081, 1471.6693320637569, 2883.464735786896, -0.06400000303983688, -0.0800000037997961, 1.0240000486373901, 0.0, 0.0, 0.0, 0.0, 0.0, 1.706216999110732E9, 0.0, 2024-01-25 13:09:59.110
36.0, 4033.115592015907, 5019.276721681934, 1555.0634912257083, 3064.7919151885435, -0.06400000303983688, -0.0800000037997961, 1.0240000486373901, 0.0, 0.0, 0.0, 0.0, 0.0, 1.706216999110732E9, 0.0, 2024-01-25 13:09:59.110
37.0, 4187.199470190331, 5177.332373609301, 1333.5884857997298, 3306.62506602332, -0.06400000303983688, -0.0800000037997961, 1.0240000486373901, 0.0, 0.0, 0.0, 0.0, 0.0, 1.706216999114951E9, 0.0, 2024-01-25 13:09:59.114
37.0, 4029.717892906163, 5065.514974784106, 1235.679774909746, 3141.1326230340637, -0.06400000303983688, -0.0800000037997961, 1.0240000486373901, 0.0, 0.0, 0.0, 0.0, 0.0, 1.706216999114951E9, 0.0, 2024-01-25 13:09:59.114
38.0, 3856.2538531613536, 5304.601169101428, 1431.8730566352606, 2897.8521309164353, -0.06400000303983688, -0.0800000037997961, 1.0240000486373901, 0.0, 0.0, 0.0, 0.0, 0.0, 1.706216999131696E9, 0.0, 2024-01-25 13:09:59.131
38.0, 3973.611913770903, 5460.573696753476, 1546.456111477688, 3054.7932926570065, -0.06400000303983688, -0.0800000037997961, 1.0240000486373901, 0.0, 0.0, 0.0, 0.0, 0.0, 1.706216999131696E9, 0.0, 2024-01-25 13:09:59.131
39.0, 4190.956199695822, 5230.055613234639, 1433.5466618654318, 2850.8995569227263, -0.06400000303983688, -0.0800000037997961, 1.0240000486373901, 0.0, 0.0, 0.0, 0.0, 0.0, 1.706216999137073E9, 0.0, 2024-01-25 13:09:59.137
39.0, 4349.855199063197, 5368.568417943548, 1542.390840225853, 2971.786213140469, -0.06400000303983688, -0.0800000037997961, 1.0240000486373901, 0.0, 0.0, 0.0, 0.0, 0.0, 1.706216999137073E9, 0.0, 2024-01-25 13:09:59.137
40.0, 4545.827826691326, 5502.05479711201, 1541.2239914396778, 3062.9257051106542, -0.06400000303983688, -0.0800000037997961, 1.0240000486373901, 0.0, 0.0, 0.0, 0.0, 0.0, 1.706216999147866E9, 0.0, 2024-01-25 13:09:59.147
40.0, 4707.230689079035, 5734.6055162567645, 1413.366161704529, 2878.3822117471136, -0.06400000303983688, -0.0800000037997961, 1.0240000486373901, 0.0, 0.0, 0.0, 0.0, 0.0, 1.706216999147866E9, 0.0, 2024-01-25 13:09:59.147
41.0, 4803.856614284217, 5824.559459940996, 1500.1411904264241, 2903.0449820049107, -0.06400000303983688, -0.0800000037997961, 1.0240000486373901, 0.0, 0.0, 0.0, 0.0, 0.0, 1.706216999155081E9, 0.0, 2024-01-25 13:09:59.155
41.0, 4562.049642749131, 6018.224569296464, 1578.4378659487702, 3089.3462283476256, -0.06400000303983688, -0.0800000037997961, 1.0240000486373901, 0.0, 0.0, 0.0, 0.0, 0.0, 1.706216999155081E9, 0.0, 2024-01-25 13:09:59.155
42.0, 4645.213798063807, 6167.24836283084, 1813.296103366185, 3303.1338694146834, -0.06400000303983688, -0.0800000037997961, 1.0240000486373901, 0.0, 0.0, 0.0, 0.0, 0.0, 1.706216999160071E9, 0.0, 2024-01-25 13:09:59.160
42.0, 4533.605833636131, 6081.872056692373, 1749.0427521774545, 3178.7130077388138, -0.06400000303983688, -0.0800000037997961, 1.0240000486373901, 0.0, 0.0, 0.0, 0.0, 0.0, 1.706216999160071E9, 0.0, 2024-01-25 13:09:59.160
43.0, 4368.694945089985, 6290.605222969316, 1942.0571189406328, 3396.6725072064437, -0.06400000303983688, -0.0800000037997961, 1.0240000486373901, 0.0, 0.0, 0.0, 0.0, 0.0, 1.706216999165075E9, 0.0, 2024-01-25 13:09:59.165
43.0, 4452.154552501161, 6451.420921063982, 2039.7395658832975, 3529.8840037281625, -0.06400000303983688, -0.0800000037997961, 1.0240000486373901, 0.0, 0.0, 0.0, 0.0, 0.0, 1.706216999165075E9, 0.0, 2024-01-25 13:09:59.165
44.0, 4666.697653359268, 6214.892818316352, 1902.6105241579935, 3344.2447196776047, -0.06400000303983688, -0.0800000037997961, 1.0240000486373901, 0.0, 0.0, 0.0, 0.0, 0.0, 1.706216999177074E9, 0.0, 2024-01-25 13:09:59.177
44.0, 4869.764871203341, 6346.08289891202, 2020.9727479056455, 3444.6068049385212, -0.06400000303983688, -0.0800000037997961, 1.0240000486373901, 0.0, 0.0, 0.0, 0.0, 0.0, 1.706216999177074E9, 0.0, 2024-01-25 13:09:59.177
45.0, 5021.61415915424, 6504.6378274834715, 2024.2545101167634, 3555.55280707404, -0.06400000303983688, -0.0800000037997961, 1.0240000486373901, 0.0, 0.0, 0.0, 0.0, 0.0, 1.706216999184047E9, 0.0, 2024-01-25 13:09:59.184
45.0, 5212.966140387114, 6715.904775980394, 1913.9816899732687, 3389.6452351897024, -0.06400000303983688, -0.0800000037997961, 1.0240000486373901, 0.0, 0.0, 0.0, 0.0, 0.0, 1.706216999184047E9, 0.0, 2024-01-25 13:09:59.184
46.0, 5307.621138315648, 6799.448531140573, 1980.6547564333305, 3429.6341154659167, -0.06400000303983688, -0.0800000037997961, 1.0240000486373901, 0.0, 0.0, 0.0, 0.0, 0.0, 1.706216999207153E9, 0.0, 2024-01-25 13:09:59.207
46.0, 5522.925308814738, 6983.992024504114, 2066.96603756072, 3556.642987911124, -0.06400000303983688, -0.0800000037997961, 1.0240000486373901, 0.0, 0.0, 0.0, 0.0, 0.0, 1.706216999207153E9, 0.0, 2024-01-25 13:09:59.207
47.0, 5620.884508354124, 7159.109100029338, 2291.9397193952464, 3771.9789475598373, -0.06400000303983688, -0.0800000037997961, 1.0240000486373901, 0.0, 0.0, 0.0, 0.0, 0.0, 1.706216999221276E9, 0.0, 2024-01-25 13:09:59.221
47.0, 5490.906155344099, 7024.029523479752, 2244.2354255104437, 3651.3428646391258, -0.06400000303983688, -0.0800000037997961, 1.0240000486373901, 0.0, 0.0, 0.0, 0.0, 0.0, 1.706216999221276E9, 0.0, 2024-01-25 13:09:59.221
48.0, 5337.057890866883, 6785.25561080873, 2413.766960451845, 3871.49394548079, -0.06400000303983688, -0.0800000037997961, 1.0240000486373901, 0.0, 0.0, 0.0, 0.0, 0.0, 1.706216999239079E9, 0.0, 2024-01-25 13:09:59.239
48.0, 5438.326901867054, 6933.609962251037, 2502.5409657000564, 4018.1092434437014, -0.06400000303983688, -0.0800000037997961, 1.0240000486373901, 0.0, 0.0, 0.0, 0.0, 0.0, 1.706216999239079E9, 0.0, 2024-01-25 13:09:59.239
49.0, 5630.381984291598, 7162.110369743779, 2378.090184824541, 3808.9796477714553, -0.06400000303983688, -0.0800000037997961, 1.0240000486373901, 0.0, 0.0, 0.0, 0.0, 0.0, 1.706216999243407E9, 0.0, 2024-01-25 13:09:59.243
49.0, 5840.472734252457, 7327.692570331972, 2530.982904863078, 3949.3137837587856, -0.06400000303983688, -0.0800000037997961, 1.0240000486373901, 0.0, 0.0, 0.0, 0.0, 0.0, 1.706216999243407E9, 0.0, 2024-01-25 13:09:59.243
50.0, 5982.751618216746, 7498.174039862119, 2518.005452016834, 4038.3813711535186, -0.06400000303983688, -0.0800000037997961, 1.0240000486373901, 0.0, 0.0, 0.0, 0.0, 0.0, 1.70621699925007E9, 0.0, 2024-01-25 13:09:59.250
50.0, 6131.7006137520075, 7692.517941059545, 2374.8514314629138, 3840.003987853881, -0.06400000303983688, -0.0800000037997961, 1.0240000486373901, 0.0, 0.0, 0.0, 0.0, 0.0, 1.70621699925007E9, 0.0, 2024-01-25 13:09:59.250
51.0, 6266.589455403853, 7750.6640356206335, 2467.026875720825, 3913.8950612284243, -0.06400000303983688, -0.0800000037997961, 1.0240000486373901, 0.0, 0.0, 0.0, 0.0, 0.0, 1.706216999255414E9, 0.0, 2024-01-25 13:09:59.255
51.0, 6491.000282295048, 7954.999079549685, 2558.3571025887504, 4042.3363153566606, -0.06400000303983688, -0.0800000037997961, 1.0240000486373901, 0.0, 0.0, 0.0, 0.0, 0.0, 1.706216999255414E9, 0.0, 2024-01-25 13:09:59.255
52.0, 6586.401390264742, 8097.485527961515, 2740.3518541324884, 4248.150489718188, -0.06400000303983688, -0.0800000037997961, 1.0240000486373901, 0.0, 0.0, 0.0, 0.0, 0.0, 1.70621699926306E9, 0.0, 2024-01-25 13:09:59.263
52.0, 6486.271178801078, 8026.002950158436, 2738.8091454007663, 4140.693814241327, -0.06400000303983688, -0.0800000037997961, 1.0240000486373901, 0.0, 0.0, 0.0, 0.0, 0.0, 1.70621699926306E9, 0.0, 2024-01-25 13:09:59.263
53.0, 6276.0775815914385, 8234.982949832454, 2893.9682448124513, 4350.676107103471, -0.06400000303983688, -0.0800000037997961, 1.0240000486373901, 0.0, 0.0, 0.0, 0.0, 0.0, 1.706216999271067E9, 0.0, 2024-01-25 13:09:59.271
53.0, 6371.1944571645, 8354.278278619051, 2942.972153931856, 4447.326341658365, -0.06400000303983688, -0.0800000037997961, 1.0240000486373901, 0.0, 0.0, 0.0, 0.0, 0.0, 1.706216999271067E9, 0.0, 2024-01-25 13:09:59.271
54.0, 6599.1413594638, 8149.127936499659, 2860.3297146609984, 4282.0657724663615, -0.06400000303983688, -0.0800000037997961, 1.0240000486373901, 0.0, 0.0, 0.0, 0.0, 0.0, 1.706216999280073E9, 0.0, 2024-01-25 13:09:59.280
54.0, 6810.3129405118525, 8266.2335538622, 2985.1432658322155, 4413.199754562695, -0.06400000303983688, -0.0800000037997961, 1.0240000486373901, 0.0, 0.0, 0.0, 0.0, 0.0, 1.706216999280073E9, 0.0, 2024-01-25 13:09:59.280
55.0, 6947.322305438574, 8422.398686361965, 2986.3867825674824, 4486.081054949202, -0.06400000303983688, -0.0800000037997961, 1.0240000486373901, 0.0, 0.0, 0.0, 0.0, 0.0, 1.706216999287466E9, 0.0, 2024-01-25 13:09:59.287
55.0, 7100.635764222126, 8635.393468638416, 2848.4125234521925, 4296.855206841137, -0.06400000303983688, -0.0800000037997961, 1.0240000486373901, 0.0, 0.0, 0.0, 0.0, 0.0, 1.706216999287466E9, 0.0, 2024-01-25 13:09:59.287
56.0, 7206.506722117774, 8701.198878308758, 2934.301195884589, 4343.243055941537, -0.06400000303983688, -0.0800000037997961, 1.0240000486373901, 0.0, 0.0, 0.0, 0.0, 0.0, 1.706216999298155E9, 0.0, 2024-01-25 13:09:59.298
56.0, 7450.57072327612, 8896.898493240122, 2984.1783716436476, 4502.867595900316, -0.06400000303983688, -0.0800000037997961, 1.0240000486373901, 0.0, 0.0, 0.0, 0.0, 0.0, 1.706216999298155E9, 0.0, 2024-01-25 13:09:59.298
57.0, 7511.553531953599, 9027.910928587895, 3178.3539773430675, 4694.066241235007, -0.06400000303983688, -0.0800000037997961, 1.0240000486373901, 0.0, 0.0, 0.0, 0.0, 0.0, 1.706216999312676E9, 0.0, 2024-01-25 13:09:59.312
57.0, 7430.313555166125, 8956.473229584284, 3183.197147785686, 4605.787772730924, -0.06400000303983688, -0.0800000037997961, 1.0240000486373901, 0.0, 0.0, 0.0, 0.0, 0.0, 1.706216999312676E9, 0.0, 2024-01-25 13:09:59.312
58.0, 7259.351508491673, 8711.472383487038, 3389.7649119882844, 4843.692158662248, -0.06400000303983688, -0.0800000037997961, 1.0240000486373901, 0.0, 0.0, 0.0, 0.0, 0.0, 1.706216999319386E9, 0.0, 2024-01-25 13:09:59.319
58.0, 7317.293778505176, 8832.873275948688, 3406.040956595447, 4914.52212392306, -0.06400000303983688, -0.0800000037997961, 1.0240000486373901, 0.0, 0.0, 0.0, 0.0, 0.0, 1.706216999319386E9, 0.0, 2024-01-25 13:09:59.319
59.0, 7075.533555719536, 8626.144696047995, 3342.842257194221, 4756.677776343189, -0.06400000303983688, -0.0800000037997961, 1.0240000486373901, 0.0, 0.0, 0.0, 0.0, 0.0, 1.706216999328096E9, 0.0, 2024-01-25 13:09:59.328
59.0, 7296.372778153047, 8776.61022101529, 3498.9026724952273, 4913.314136237372, -0.06400000303983688, -0.0800000037997961, 1.0240000486373901, 0.0, 0.0, 0.0, 0.0, 0.0, 1.706216999328096E9, 0.0, 2024-01-25 13:09:59.328
60.0, 7439.16028851131, 8895.825141952839, 3444.502087739762, 4984.781754440628, -0.06400000303983688, -0.0800000037997961, 1.0240000486373901, 0.0, 0.0, 0.0, 0.0, 0.0, 1.706216999337049E9, 0.0, 2024-01-25 13:09:59.337
60.0, 7590.521519517992, 9101.755253212992, 3327.201995579526, 4788.913844011258, -0.06400000303983688, -0.0800000037997961, 1.0240000486373901, 0.0, 0.0, 0.0, 0.0, 0.0, 1.706216999337049E9, 0.0, 2024-01-25 13:09:59.337
61.0, 7687.188583622687, 9211.803679359145, 3448.204588695895, 4840.331858552061, -0.06400000303983688, -0.0800000037997961, 1.0240000486373901, 0.0, 0.0, 0.0, 0.0, 0.0, 1.706216999343168E9, 0.0, 2024-01-25 13:09:59.343
61.0, 7475.14373593498, 9412.514760231134, 3498.582911049016, 5004.664932555053, -0.06400000303983688, -0.0800000037997961, 1.0240000486373901, 0.0, 0.0, 0.0, 0.0, 0.0, 1.706216999343168E9, 0.0, 2024-01-25 13:09:59.343
62.0, 7510.119280320592, 9559.69852298731, 3705.8818256929517, 5179.075166988652, -0.06400000303983688, -0.0800000037997961, 1.0240000486373901, 0.0, 0.0, 0.0, 0.0, 0.0, 1.706216999373392E9, 0.0, 2024-01-25 13:09:59.373
62.0, 7453.278410844039, 9502.266749317758, 3718.518947643228, 5095.179861232638, -0.06400000303983688, -0.0800000037997961, 1.0240000486373901, 0.0, 0.0, 0.0, 0.0, 0.0, 1.706216999373392E9, 0.0, 2024-01-25 13:09:59.373
63.0, 7288.887368391734, 9712.589373075869, 3895.167512200307, 4856.637822358869, -0.06400000303983688, -0.0800000037997961, 1.0240000486373901, 0.0, 0.0, 0.0, 0.0, 0.0, 1.706216999379056E9, 0.0, 2024-01-25 13:09:59.379
63.0, 7325.3476530597545, 9816.005086650606, 3926.8930835244246, 4910.978568715043, -0.06400000303983688, -0.0800000037997961, 1.0240000486373901, 0.0, 0.0, 0.0, 0.0, 0.0, 1.706216999379056E9, 0.0, 2024-01-25 13:09:59.379
64.0, 7082.925467981957, 9583.538515254855, 3833.3637954825535, 4766.040615882259, -0.06400000303983688, -0.0800000037997961, 1.0240000486373901, 0.0, 0.0, 0.0, 0.0, 0.0, 1.706216999385044E9, 0.0, 2024-01-25 13:09:59.385
64.0, 7323.42534448253, 9757.591589242686, 3973.0621484774165, 4910.858891916461, -0.06400000303983688, -0.0800000037997961, 1.0240000486373901, 0.0, 0.0, 0.0, 0.0, 0.0, 1.706216999385044E9, 0.0, 2024-01-25 13:09:59.385
65.0, 7448.900857945904, 9856.517552920617, 3959.3853343394585, 4967.70350129297, -0.06400000303983688, -0.0800000037997961, 1.0240000486373901, 0.0, 0.0, 0.0, 0.0, 0.0, 1.706216999393056E9, 0.0, 2024-01-25 13:09:59.393
65.0, 7594.682158218697, 10100.949934224598, 3820.105850139633, 4780.628095659427, -0.06400000303983688, -0.0800000037997961, 1.0240000486373901, 0.0, 0.0, 0.0, 0.0, 0.0, 1.706216999393056E9, 0.0, 2024-01-25 13:09:59.393
66.0, 7699.977171521168, 10168.475697874557, 3938.213760690298, 4834.3798077725805, -0.06400000303983688, -0.0800000037997961, 1.0240000486373901, 0.0, 0.0, 0.0, 0.0, 0.0, 1.706216999397188E9, 0.0, 2024-01-25 13:09:59.397
66.0, 7470.100480844732, 10395.482015335001, 4012.482563960366, 5008.919068754651, -0.06400000303983688, -0.0800000037997961, 1.0240000486373901, 0.0, 0.0, 0.0, 0.0, 0.0, 1.706216999397188E9, 0.0, 2024-01-25 13:09:59.397
67.0, 7542.568522286136, 10483.291126394644, 4159.606488317251, 5170.740799937397, -0.06400000303983688, -0.0800000037997961, 1.0240000486373901, 0.0, 0.0, 0.0, 0.0, 0.0, 1.706216999403058E9, 0.0, 2024-01-25 13:09:59.403
67.0, 7409.3252366147935, 10432.703369644005, 4169.165672603995, 5100.466209820006, -0.06400000303983688, -0.0800000037997961, 1.0240000486373901, 0.0, 0.0, 0.0, 0.0, 0.0, 1.706216999403058E9, 0.0, 2024-01-25 13:09:59.403
68.0, 7273.480850524269, 10207.58009181125, 4367.011990109924, 5331.949187527411, -0.06400000303983688, -0.0800000037997961, 1.0240000486373901, 0.0, 0.0, 0.0, 0.0, 0.0, 1.706216999417075E9, 0.0, 2024-01-25 13:09:59.417
68.0, 7311.799865470268, 10312.559083567467, 4406.460454842541, 5425.293350521475, -0.06400000303983688, -0.0800000037997961, 1.0240000486373901, 0.0, 0.0, 0.0, 0.0, 0.0, 1.706216999417075E9, 0.0, 2024-01-25 13:09:59.417
69.0, 7095.01843448868, 10110.759691808373, 4314.434606582858, 5268.612111827824, -0.06400000303983688, -0.0800000037997961, 1.0240000486373901, 0.0, 0.0, 0.0, 0.0, 0.0, 1.706216999421714E9, 0.0, 2024-01-25 13:09:59.421
69.0, 7322.9597269380465, 10269.950403372291, 4491.69651473267, 5431.31084955018, -0.06400000303983688, -0.0800000037997961, 1.0240000486373901, 0.0, 0.0, 0.0, 0.0, 0.0, 1.706216999421714E9, 0.0, 2024-01-25 13:09:59.421
70.0, 7400.13069257373, 10340.086617191322, 4411.314844985027, 5456.785178098362, -0.06400000303983688, -0.0800000037997961, 1.0240000486373901, 0.0, 0.0, 0.0, 0.0, 0.0, 1.706216999430593E9, 0.0, 2024-01-25 13:09:59.430
70.0, 7595.368429860566, 10564.622730731033, 4313.271497696638, 5258.830403493717, -0.06400000303983688, -0.0800000037997961, 1.0240000486373901, 0.0, 0.0, 0.0, 0.0, 0.0, 1.706216999430593E9, 0.0, 2024-01-25 13:09:59.430
71.0, 7720.058564333245, 10704.171487727668, 4443.354567905422, 5372.7159669944085, -0.06400000303983688, -0.0800000037997961, 1.0240000486373901, 0.0, 0.0, 0.0, 0.0, 0.0, 1.706216999448171E9, 0.0, 2024-01-25 13:09:59.448
71.0, 7496.135794386268, 10888.767339690588, 4519.837391949259, 5510.727625109255, -0.06400000303983688, -0.0800000037997961, 1.0240000486373901, 0.0, 0.0, 0.0, 0.0, 0.0, 1.706216999448171E9, 0.0, 2024-01-25 13:09:59.448
72.0, 7492.289307281841, 10966.20944807306, 4648.220677628182, 5644.126116628759, -0.06400000303983688, -0.0800000037997961, 1.0240000486373901, 0.0, 0.0, 0.0, 0.0, 0.0, 1.706216999455445E9, 0.0, 2024-01-25 13:09:59.455
72.0, 7469.032739407383, 10955.462845550384, 4672.212135843933, 5607.301191715058, -0.06400000303983688, -0.0800000037997961, 1.0240000486373901, 0.0, 0.0, 0.0, 0.0, 0.0, 1.706216999455445E9, 0.0, 2024-01-25 13:09:59.455
