%OpenBCI Raw EXG Data
%Number of channels = 4
%Sample Rate = 200 Hz
%Board = OpenBCI_GUI$BoardGanglionBLE
Sample Index, EXG Channel 0, EXG Channel 1, EXG Channel 2, EXG Channel 3, Accel Channel 0, Accel Channel 1, Accel Channel 2, Other, Other, Other, Other, Other, Timestamp, Other, Timestamp (Formatted)
2.0, 104.75646770885214, 93.86774898786098, -197.19183501368389, -209.44000736856833, -0.04800000227987766, 0.0, 0.0, 0.0, 0.0, 0.0, 0.0, 0.0, 1.706649062317221E9, 0.0, 2024-01-30 13:11:02.317
2.0, 231.6886722049676, 79.62247005663812, -108.53937651403248, -102.18154658935964, -0.04800000227987766, 0.0, 0.0, 0.0, 0.0, 0.0, 0.0, 0.0, 1.706649062317221E9, 0.0, 2024-01-30 13:11:02.317
3.0, 232.17298924922943, 48.55512112472206, -234.69181186938658, -243.3235009671189, -0.04800000227987766, 0.0, 0.0, 0.0, 0.0, 0.0, 0.0, 0.0, 1.706649062328176E9, 0.0, 2024-01-30 13:11:02.328
3.0, 179.40300087444484, 120.26022297516465, -47.35648318892345, -40.639622868504375, -0.04800000227987766, 0.0, 0.0, 0.0, 0.0, 0.0, 0.0, 0.0, 1.706649062328176E9, 0.0, 2024-01-30 13:11:02.328
4.0, -3.543555208016187, 194.60943409428, -48.46723347576335, -32.49973061494529, -0.04800000227987766, 0.0, 0.0, 0.0, 0.0, 0.0, 0.0, 0.0, 1.706649062334122E9, 0.0, 2024-01-30 13:11:02.334
4.0, 43.19584448821843, -16.728572501800954, 166.098306782078, 166.8967754226178, -0.04800000227987766, 0.0, 0.0, 0.0, 0.0, 0.0, 0.0, 0.0, 1.706649062334122E9, 0.0, 2024-01-30 13:11:02.334
5.0, -131.73797593917698, 89.13677554391325, 379.3062633560039, 378.38437801692635, -0.04800000227987766, 0.0, 0.0, 0.0, 0.0, 0.0, 0.0, 0.0, 1.706649062342106E9, 0.0, 2024-01-30 13:11:02.342
5.0, -198.9982066922821, 230.2544205719605, 193.47063455777243, 208.52934172935784, -0.04800000227987766, 0.0, 0.0, 0.0, 0.0, 0.0, 0.0, 0.0, 1.706649062342106E9, 0.0, 2024-01-30 13:11:02.342
6.0, 17.04085414810106, -2.737606767565012, -3.9699038029648364, -0.4375682948157191, -0.04800000227987766, 0.0, 0.0, 0.0, 0.0, 0.0, 0.0, 0.0, 1.706649062357227E9, 0.0, 2024-01-30 13:11:02.357
6.0, 100.59208910819143, 91.78836461249739, -201.29263531509787, -215.99231209093705, -0.04800000227987766, 0.0, 0.0, 0.0, 0.0, 0.0, 0.0, 0.0, 1.706649062357227E9, 0.0, 2024-01-30 13:11:02.357
7.0, 230.22637132229283, 178.99161187931895, -77.84227767772973, -66.63566746050492, -0.04800000227987766, 0.0, 0.0, 0.0, 0.0, 0.0, 0.0, 0.0, 1.706649062364208E9, 0.0, 2024-01-30 13:11:02.364
7.0, 251.08753327513114, 74.0350595228374, -112.68692556489259, -105.41095020109788, -0.04800000227987766, 0.0, 0.0, 0.0, 0.0, 0.0, 0.0, 0.0, 1.706649062364208E9, 0.0, 2024-01-30 13:11:02.364
8.0, 225.0877487831749, 51.07955359481275, -231.99160410137847, -245.49451289139688, -0.04800000227987766, 0.0, 0.0, 0.0, 0.0, 0.0, 0.0, 0.0, 1.706649062372118E9, 0.0, 2024-01-30 13:11:02.372
8.0, 164.90153879625723, 128.2486492805183, -49.895875258836895, -39.09691413678229, -0.04800000227987766, 0.0, 0.0, 0.0, 0.0, 0.0, 0.0, 0.0, 1.706649062372118E9, 0.0, 2024-01-30 13:11:02.372
9.0, 3.092897263355553, 182.753951234743, -52.760638624895364, -37.864617101382464, -0.04800000227987766, 0.0, 0.0, 0.0, 0.0, 0.0, 0.0, 0.0, 1.706649062388141E9, 0.0, 2024-01-30 13:11:02.388
9.0, 36.69402841525152, -18.381608282215893, 166.7640089741908, 166.78644837392494, -0.04800000227987766, 0.0, 0.0, 0.0, 0.0, 0.0, 0.0, 0.0, 1.706649062388141E9, 0.0, 2024-01-30 13:11:02.388
10.0, -142.46213906211779, 94.45865318085998, 378.894874360878, 377.8963210727088, -0.04800000227987766, 0.0, 1.0240000486373901, 0.0, 0.0, 0.0, 0.0, 0.0, 1.706649062394446E9, 0.0, 2024-01-30 13:11:02.394
10.0, -199.38154643774033, 234.61140402033925, 194.86935714120045, 206.2274333066307, -0.04800000227987766, 0.0, 1.0240000486373901, 0.0, 0.0, 0.0, 0.0, 0.0, 1.706649062394446E9, 0.0, 2024-01-30 13:11:02.394
11.0, 21.26507114805281, 477.6057937913574, -5.873512880410999, -3.4762370088137686, -0.04800000227987766, 0.0, 1.0240000486373901, 0.0, 0.0, 0.0, 0.0, 0.0, 1.706649062403128E9, 0.0, 2024-01-30 13:11:02.403
11.0, 92.10812605870888, 589.5970979644917, -190.15895314700902, -212.471196282655, -0.04800000227987766, 0.0, 1.0240000486373901, 0.0, 0.0, 0.0, 0.0, 0.0, 1.706649062403128E9, 0.0, 2024-01-30 13:11:02.403
12.0, 221.82468607183546, 667.7348277387209, -76.26403989642859, -68.1447170926258, -0.04800000227987766, 0.0, 1.0240000486373901, 0.0, 0.0, 0.0, 0.0, 0.0, 1.706649062418243E9, 0.0, 2024-01-30 13:11:02.418
12.0, 261.0450169071555, 555.208717871923, -114.04076934885234, -102.31244308780879, -0.04800000227987766, 0.0, 1.0240000486373901, 0.0, 0.0, 0.0, 0.0, 0.0, 1.706649062418243E9, 0.0, 2024-01-30 13:11:02.418
13.0, 217.78559411969036, 548.9069864465855, -224.2687106928788, -241.4685105890967, -0.04800000227987766, 0.0, 1.0240000486373901, 0.0, 0.0, 0.0, 0.0, 0.0, 1.706649062427285E9, 0.0, 2024-01-30 13:11:02.427
13.0, 154.21477467287332, 619.9239467051812, -41.21930736163631, -38.17128889774904, -0.04800000227987766, 0.0, 1.0240000486373901, 0.0, 0.0, 0.0, 0.0, 0.0, 1.706649062427285E9, 0.0, 2024-01-30 13:11:02.427
14.0, 11.180430917534977, 671.9534348887391, -53.130888720508665, -41.873789853882045, -0.04800000227987766, 0.0, 1.0240000486373901, 0.0, 0.0, 0.0, 0.0, 0.0, 1.706649062433121E9, 0.0, 2024-01-30 13:11:02.433
14.0, 29.73968444764614, 485.11177300242707, 166.82010747352615, 161.49448993662372, -0.04800000227987766, 0.0, 1.0240000486373901, 0.0, 0.0, 0.0, 0.0, 0.0, 1.706649062433121E9, 0.0, 2024-01-30 13:11:02.433
15.0, -150.91244301199913, 601.6021768222563, 379.29130375618115, 382.77689051488414, -0.04800000227987766, 0.0, 1.0240000486373901, 0.0, 0.0, 0.0, 0.0, 0.0, 1.706649062447108E9, 0.0, 2024-01-30 13:11:02.447
15.0, -197.39004971133545, 731.4290638840757, 188.23851451976225, 204.09569033188745, -0.04800000227987766, 0.0, 1.0240000486373901, 0.0, 0.0, 0.0, 0.0, 0.0, 1.706649062447108E9, 0.0, 2024-01-30 13:11:02.447
16.0, 26.69353593373671, 970.4591597020626, -12.134105406235904, -4.856260092463344, -0.04800000227987766, 0.0, 1.0240000486373901, 0.0, 0.0, 0.0, 0.0, 0.0, 1.70664906245346E9, 0.0, 2024-01-30 13:11:02.453
16.0, 90.43452082853764, 1083.3517797645181, -198.79064224474132, -210.42547100689262, -0.04800000227987766, 0.0, 1.0240000486373901, 0.0, 0.0, 0.0, 0.0, 0.0, 1.70664906245346E9, 0.0, 2024-01-30 13:11:02.453
17.0, 215.1209154012613, 1168.187670359388, -88.11952275596559, -68.44764898903668, -0.04800000227987766, 0.0, 1.0240000486373901, 0.0, 0.0, 0.0, 0.0, 0.0, 1.706649062461235E9, 0.0, 2024-01-30 13:11:02.461
17.0, 271.69064213102683, 1049.9282938605174, -123.82808753289282, -104.22353196516633, -0.04800000227987766, 0.0, 1.0240000486373901, 0.0, 0.0, 0.0, 0.0, 0.0, 1.706649062461235E9, 0.0, 2024-01-30 13:11:02.461
18.0, 211.14166184840724, 1043.3759891381487, -235.17425896367058, -242.26510927965865, -0.04800000227987766, 0.0, 1.0240000486373901, 0.0, 0.0, 0.0, 0.0, 0.0, 1.706649062477139E9, 0.0, 2024-01-30 13:11:02.477
18.0, 148.85362808639184, 1120.9676935188472, -46.10735660372302, -43.97187372902408, -0.04800000227987766, 0.0, 1.0240000486373901, 0.0, 0.0, 0.0, 0.0, 0.0, 1.706649062477139E9, 0.0, 2024-01-30 13:11:02.477
19.0, 22.308503235690296, 1167.4172509685159, -58.82675635302439, -40.57791451923549, -0.04800000227987766, 0.0, 1.0240000486373901, 0.0, 0.0, 0.0, 0.0, 0.0, 1.706649062482119E9, 0.0, 2024-01-30 13:11:02.482
19.0, 40.49376677023247, 975.4444463429973, 165.81781428540125, 162.7492263717577, -0.04800000227987766, 0.0, 1.0240000486373901, 0.0, 0.0, 0.0, 0.0, 0.0, 1.706649062482119E9, 0.0, 2024-01-30 13:11:02.482
20.0, -147.2417312054895, 1088.576420002617, 380.7274253391661, 378.23104211874306, -0.04800000227987766, 0.0, 1.0240000486373901, 0.0, 0.0, 0.0, 0.0, 0.0, 1.706649062493111E9, 0.0, 2024-01-30 13:11:02.493
20.0, -187.33158878050745, 1208.866562177427, 184.34527866588905, 200.41749872546643, -0.04800000227987766, 0.0, 1.0240000486373901, 0.0, 0.0, 0.0, 0.0, 0.0, 1.706649062493111E9, 0.0, 2024-01-30 13:11:02.493
21.0, 37.12224696017802, 964.4678399730474, -13.06908039515838, -8.590550198219717, -0.04800000227987766, 0.0, 1.0240000486373901, 0.0, 0.0, 0.0, 0.0, 0.0, 1.70664906251014E9, 0.0, 2024-01-30 13:11:02.510
21.0, 94.32962663238868, 1089.324399993755, -198.5400689477101, -207.95152718620375, -0.04800000227987766, 0.0, 1.0240000486373901, 0.0, 0.0, 0.0, 0.0, 0.0, 1.70664906251014E9, 0.0, 2024-01-30 13:11:02.510
22.0, 221.805986572057, 1167.694003565237, -81.33908413629979, -66.46737196249887, -0.04800000227987766, 0.0, 1.0240000486373901, 0.0, 0.0, 0.0, 0.0, 0.0, 1.706649062517247E9, 0.0, 2024-01-30 13:11:02.517
22.0, 284.5839472282678, 1037.7436998048797, -118.87645999155939, -105.32119260216132, -0.04800000227987766, 0.0, 1.0240000486373901, 0.0, 0.0, 0.0, 0.0, 0.0, 1.706649062517247E9, 0.0, 2024-01-30 13:11:02.517
23.0, 216.656144333072, 1038.7759121926501, -228.81642903899774, -244.49221970327199, -0.04800000227987766, 0.0, 1.0240000486373901, 0.0, 0.0, 0.0, 0.0, 0.0, 1.706649062523121E9, 0.0, 2024-01-30 13:11:02.523
23.0, 157.98085392825305, 1125.709886662662, -44.263585925567895, -42.474043796770275, -0.04800000227987766, 0.0, 1.0240000486373901, 0.0, 0.0, 0.0, 0.0, 0.0, 1.706649062523121E9, 0.0, 2024-01-30 13:11:02.523
24.0, 39.11374368658289, 1160.191764254123, -62.91072710463777, -47.305994539521635, -0.04800000227987766, 0.0, 1.0240000486373901, 0.0, 0.0, 0.0, 0.0, 0.0, 1.706649062540119E9, 0.0, 2024-01-30 13:11:02.540
24.0, 35.52717962907627, 973.8175898622721, 169.45673694228753, 164.61917634960264, -0.04800000227987766, 0.0, 1.0240000486373901, 0.0, 0.0, 0.0, 0.0, 0.0, 1.706649062540119E9, 0.0, 2024-01-30 13:11:02.540
25.0, -151.41545955603942, 1083.3218605648726, 382.7656708150171, 379.7307420009747, -0.04800000227987766, 0.0, 1.0240000486373901, 0.0, 0.0, 0.0, 0.0, 0.0, 1.706649062545477E9, 0.0, 2024-01-30 13:11:02.545
25.0, -178.29973038751632, 1204.068270534277, 183.17095007980242, 197.7659096568823, -0.04800000227987766, 0.0, 1.0240000486373901, 0.0, 0.0, 0.0, 0.0, 0.0, 1.706649062545477E9, 0.0, 2024-01-30 13:11:02.545
26.0, 40.3161215223372, 962.2276398995891, -13.622585588600487, -6.959953817538917, -0.04800000227987766, 0.0, 1.0240000486373901, 0.0, 0.0, 0.0, 0.0, 0.0, 1.706649062552454E9, 0.0, 2024-01-30 13:11:02.552
26.0, 84.1683184527792, 1090.1509178839624, -194.41121939662844, -212.22249293560162, -0.04800000227987766, 0.0, 1.0240000486373901, 0.0, 0.0, 0.0, 0.0, 0.0, 1.706649062552454E9, 0.0, 2024-01-30 13:11:02.552
27.0, 212.41135788336396, 1175.4617757732049, -81.1857482381165, -68.20642544189468, -0.04800000227987766, 0.0, 1.0240000486373901, 0.0, 0.0, 0.0, 0.0, 0.0, 1.706649062569221E9, 0.0, 2024-01-30 13:11:02.569
27.0, 285.2833085199818, 1032.6948348646984, -121.19145806413144, -110.13070394517854, -0.04800000227987766, 0.0, 1.0240000486373901, 0.0, 0.0, 0.0, 0.0, 0.0, 1.706649062569221E9, 0.0, 2024-01-30 13:11:02.569
28.0, 212.81526707857847, 1039.9502407787368, -228.09836824750528, -245.83858368732035, -0.04800000227987766, 0.0, 1.0240000486373901, 0.0, 0.0, 0.0, 0.0, 0.0, 1.706649062578113E9, 0.0, 2024-01-30 13:11:02.578
28.0, 143.07361270487309, 1123.4135880898684, -41.67183525627479, -41.40817230939865, -0.04800000227987766, 0.0, 1.0240000486373901, 0.0, 0.0, 0.0, 0.0, 0.0, 1.706649062578113E9, 0.0, 2024-01-30 13:11:02.578
29.0, 37.075498210731894, 1147.902452999726, -60.730365430470556, -43.37909958604723, -0.04800000227987766, 0.0, 1.0240000486373901, 0.0, 0.0, 0.0, 0.0, 0.0, 1.706649062585118E9, 0.0, 2024-01-30 13:11:02.585
29.0, 21.625971493776888, 972.9648926723748, 168.98176964791492, 163.4897265629843, -0.04800000227987766, 0.0, 1.0240000486373901, 0.0, 0.0, 0.0, 0.0, 0.0, 1.706649062585118E9, 0.0, 2024-01-30 13:11:02.585
30.0, -166.23668308043852, 1095.7682476174086, 384.36260809609666, 376.5892260381952, -0.04800000227987766, 0.0, 1.0240000486373901, 0.0, 0.0, 0.0, 0.0, 0.0, 1.706649062597105E9, 0.0, 2024-01-30 13:11:02.597
30.0, -187.4550054790452, 1211.304976948537, 182.30703319003806, 200.73913012165576, -0.04800000227987766, 0.0, 1.0240000486373901, 0.0, 0.0, 0.0, 0.0, 0.0, 1.706649062597105E9, 0.0, 2024-01-30 13:11:02.597
31.0, 33.28136970568448, 1449.598312475253, -13.11021929467097, -2.341177372261882, -0.04800000227987766, 0.0, 1.0240000486373901, 0.0, 0.0, 0.0, 0.0, 0.0, 1.706649062605129E9, 0.0, 2024-01-30 13:11:02.605
31.0, 78.17699872376397, 1574.2229986987077, -191.95036522578448, -210.36376265762374, -0.04800000227987766, 0.0, 1.0240000486373901, 0.0, 0.0, 0.0, 0.0, 0.0, 1.706649062605129E9, 0.0, 2024-01-30 13:11:02.605
32.0, 206.0647476585582, 1665.637373315636, -67.49771440029144, -72.69804528867826, -0.04800000227987766, 0.0, 1.0240000486373901, 0.0, 0.0, 0.0, 0.0, 0.0, 1.706649062628234E9, 0.0, 2024-01-30 13:11:02.628
32.0, 278.9553977949545, 1517.148385474924, -118.80166199244559, -108.80303946090862, -0.04800000227987766, 0.0, 1.0240000486373901, 0.0, 0.0, 0.0, 0.0, 0.0, 1.706649062628234E9, 0.0, 2024-01-30 13:11:02.628
33.0, 202.11915320530534, 1540.7097551957704, -223.80870299832895, -243.78911851160228, -0.04800000227987766, 0.0, 1.0240000486373901, 0.0, 0.0, 0.0, 0.0, 0.0, 1.706649062635131E9, 0.0, 2024-01-30 13:11:02.635
33.0, 128.7273564748466, 1619.4383891629986, -36.83988451352343, -45.271488963626325, -0.04800000227987766, 0.0, 1.0240000486373901, 0.0, 0.0, 0.0, 0.0, 0.0, 1.706649062635131E9, 0.0, 2024-01-30 13:11:02.635
34.0, 38.88560978928581, 1644.7649916629307, -57.502831768710166, -47.261115740053356, -0.04800000227987766, 0.0, 1.0240000486373901, 0.0, 0.0, 0.0, 0.0, 0.0, 1.706649062641114E9, 0.0, 2024-01-30 13:11:02.641
34.0, 21.300600197631866, 1459.0565194631927, 173.4359904951416, 164.49201975110918, -0.04800000227987766, 0.0, 1.0240000486373901, 0.0, 0.0, 0.0, 0.0, 0.0, 1.706649062641114E9, 0.0, 2024-01-30 13:11:02.641
35.0, -171.05367422336712, 1586.074741658289, 388.40917984815314, 372.9465634813532, -0.04800000227987766, 0.0, 1.0240000486373901, 0.0, 0.0, 0.0, 0.0, 0.0, 1.706649062648144E9, 0.0, 2024-01-30 13:11:02.648
35.0, -179.35438217502087, 1700.986907696817, 190.31789889512584, 197.77338945679367, -0.04800000227987766, 0.0, 1.0240000486373901, 0.0, 0.0, 0.0, 0.0, 0.0, 1.706649062648144E9, 0.0, 2024-01-30 13:11:02.648
36.0, 30.080015343613923, 1941.3633674988523, -3.292981910984963, -7.932327806018293, -0.04800000227987766, 0.0, 1.0240000486373901, 0.0, 0.0, 0.0, 0.0, 0.0, 1.706649062659136E9, 0.0, 2024-01-30 13:11:02.659
36.0, 70.13247391907498, 2067.846784000285, -191.3108423333615, -211.7138665416278, -0.04800000227987766, 0.0, 1.0240000486373901, 0.0, 0.0, 0.0, 0.0, 0.0, 1.706649062659136E9, 0.0, 2024-01-30 13:11:02.659
37.0, 203.86942638456821, 2158.4533402267843, -74.73068091459572, -71.66209300095215, -0.04800000227987766, 0.0, 1.0240000486373901, 0.0, 0.0, 0.0, 0.0, 0.0, 1.706649062663231E9, 0.0, 2024-01-30 13:11:02.663
37.0, 294.7302958080545, 2009.6128017902374, -119.08963428903371, -111.84357812488452, -0.04800000227987766, 0.0, 1.0240000486373901, 0.0, 0.0, 0.0, 0.0, 0.0, 1.706649062663231E9, 0.0, 2024-01-30 13:11:02.663
38.0, 198.62608664669096, 2024.8042754102498, -229.78506312752143, -251.91592111531645, -0.04800000227987766, 0.0, 1.0240000486373901, 0.0, 0.0, 0.0, 0.0, 0.0, 1.706649062672143E9, 0.0, 2024-01-30 13:11:02.672
38.0, 138.72410905640572, 2110.1263529993594, -35.97970752371475, -42.37680639792234, -0.04800000227987766, 0.0, 1.0240000486373901, 0.0, 0.0, 0.0, 0.0, 0.0, 1.706649062672143E9, 0.0, 2024-01-30 13:11:02.672
39.0, 36.237760620657355, 2121.346052866429, -55.490765592548996, -49.77806841023266, -0.04800000227987766, 0.0, 1.0240000486373901, 0.0, 0.0, 0.0, 0.0, 0.0, 1.706649062688136E9, 0.0, 2024-01-30 13:11:02.688
39.0, 21.08742590015754, 1948.7347103115171, 176.25587506173179, 158.4408616228029, -0.04800000227987766, 0.0, 1.0240000486373901, 0.0, 0.0, 0.0, 0.0, 0.0, 1.706649062688136E9, 0.0, 2024-01-30 13:11:02.688
40.0, -161.50944953644648, 2075.9212280046195, 387.63128065736964, 371.5777600975707, -0.04800000227987766, 0.0, 1.0240000486373901, 0.0, 0.0, 0.0, 0.0, 0.0, 1.706649062694155E9, 0.0, 2024-01-30 13:11:02.694
40.0, -177.0880028018728, 2196.499342476018, 186.06189274555072, 192.4253325201571, -0.04800000227987766, 0.0, 1.0240000486373901, 0.0, 0.0, 0.0, 0.0, 0.0, 1.706649062694155E9, 0.0, 2024-01-30 13:11:02.694
41.0, 34.33602149318904, 2431.108876546379, -3.4724971088580787, -7.206787214614451, -0.04800000227987766, 0.0, 1.0240000486373901, 0.0, 0.0, 0.0, 0.0, 0.0, 1.706649062703132E9, 0.0, 2024-01-30 13:11:02.703
41.0, 83.03138886624947, 2569.2233819100074, -196.47938407212496, -214.00268531451002, -0.04800000227987766, 0.0, 1.0240000486373901, 0.0, 0.0, 0.0, 0.0, 0.0, 1.706649062703132E9, 0.0, 2024-01-30 13:11:02.703
42.0, 220.08563259243965, 2644.20837602159, -84.37962280027568, -74.09676787210628, -0.04800000227987766, 0.0, 1.0240000486373901, 0.0, 0.0, 0.0, 0.0, 0.0, 1.706649062719268E9, 0.0, 2024-01-30 13:11:02.719
42.0, 290.8370599541813, 2503.5507386880927, -119.67305868212134, -110.31395904300734, -0.04800000227987766, 0.0, 1.0240000486373901, 0.0, 0.0, 0.0, 0.0, 0.0, 1.706649062719268E9, 0.0, 2024-01-30 13:11:02.719
43.0, 209.48301621805876, 2515.488499346655, -226.2358980695717, -246.32477068156004, -0.04800000227987766, 0.0, 1.0240000486373901, 0.0, 0.0, 0.0, 0.0, 0.0, 1.706649062726793E9, 0.0, 2024-01-30 13:11:02.726
43.0, 145.90471697133034, 2598.0841898680665, -43.010719440411776, -52.175344281829894, -0.04800000227987766, 0.0, 1.0240000486373901, 0.0, 0.0, 0.0, 0.0, 0.0, 1.706649062726793E9, 0.0, 2024-01-30 13:11:02.726
44.0, 88.12513260589913, 2603.735178701114, -75.22621765872464, -62.142177663743496, -0.04800000227987766, 0.0, 1.0240000486373901, 0.0, 0.0, 0.0, 0.0, 0.0, 1.706649062734111E9, 0.0, 2024-01-30 13:11:02.734
44.0, 67.38738735159859, 2436.4382339832373, 164.56494780024514, 151.76888010185212, -0.04800000227987766, 0.0, 1.0240000486373901, 0.0, 0.0, 0.0, 0.0, 0.0, 1.706649062734111E9, 0.0, 2024-01-30 13:11:02.734
45.0, -146.29553651669994, 2554.4844361846335, 384.7889566910453, 373.01014178059995, -0.04800000227987766, 0.0, 1.0240000486373901, 0.0, 0.0, 0.0, 0.0, 0.0, 1.706649062748245E9, 0.0, 2024-01-30 13:11:02.748
45.0, -144.14883394213393, 2675.122389055323, 176.26709476159886, 189.85602125059813, -0.04800000227987766, 0.0, 1.0240000486373901, 0.0, 0.0, 0.0, 0.0, 0.0, 1.706649062748245E9, 0.0, 2024-01-30 13:11:02.748
46.0, 43.79235853115097, 2907.416925053112, -3.143385912757367, -6.668241620995104, -0.04800000227987766, 0.0, 1.0240000486373901, 0.0, 0.0, 0.0, 0.0, 0.0, 1.706649062754898E9, 0.0, 2024-01-30 13:11:02.754
46.0, 83.58676400966942, 3048.8225423777476, -190.25619054585695, -217.43965337378904, -0.04800000227987766, 0.0, 1.0240000486373901, 0.0, 0.0, 0.0, 0.0, 0.0, 1.706649062754898E9, 0.0, 2024-01-30 13:11:02.754
47.0, 219.61253524804488, 3136.0968477437273, -77.86845697741956, -79.51962280785665, -0.04800000227987766, 0.0, 1.0240000486373901, 0.0, 0.0, 0.0, 0.0, 0.0, 1.706649062763137E9, 0.0, 2024-01-30 13:11:02.763
47.0, 293.385801773984, 2984.4588641403243, -120.97080396674573, -112.75611371407285, -0.04800000227987766, 0.0, 1.0240000486373901, 0.0, 0.0, 0.0, 0.0, 0.0, 1.706649062763137E9, 0.0, 2024-01-30 13:11:02.763
48.0, 204.10691003175452, 3006.064266184345, -227.3877872559242, -244.226686806418, -0.04800000227987766, 0.0, 1.0240000486373901, 0.0, 0.0, 0.0, 0.0, 0.0, 1.706649062778127E9, 0.0, 2024-01-30 13:11:02.778
48.0, 137.76482471777126, 3095.010306830518, -35.07465173443779, -44.048541678115726, -0.04800000227987766, 0.0, 1.0240000486373901, 0.0, 0.0, 0.0, 0.0, 0.0, 1.706649062778127E9, 0.0, 2024-01-30 13:11:02.778
49.0, 55.376698643900454, 3100.7697527622804, -60.18434003693983, -55.361739044077694, -0.04800000227987766, 0.0, 1.0240000486373901, 0.0, 0.0, 0.0, 0.0, 0.0, 1.70664906278314E9, 0.0, 2024-01-30 13:11:02.783
49.0, 14.720246225595474, 2939.2883524755016, 178.42501703603193, 158.82607131823897, -0.04800000227987766, 0.0, 1.0240000486373901, 0.0, 0.0, 0.0, 0.0, 0.0, 1.70664906278314E9, 0.0, 2024-01-30 13:11:02.783
50.0, -177.55549029633403, 3062.159025619738, 396.3602071539499, 377.4307035282254, -0.04800000227987766, 0.0, 1.0240000486373901, 0.0, 0.0, 0.0, 0.0, 0.0, 1.706649062790645E9, 0.0, 2024-01-30 13:11:02.790
50.0, -178.8775449306704, 3173.499587200582, 183.38786427723244, 188.3451016684994, -0.04800000227987766, 0.0, 1.0240000486373901, 0.0, 0.0, 0.0, 0.0, 0.0, 1.706649062790645E9, 0.0, 2024-01-30 13:11:02.790
51.0, 24.41967676067725, 3412.417486019898, -1.0527818375267088, -5.3742362363263965, -0.04800000227987766, 0.0, 1.0240000486373901, 0.0, 0.0, 0.0, 0.0, 0.0, 1.706649062810135E9, 0.0, 2024-01-30 13:11:02.810
51.0, 67.59869169909507, 3541.5001329905353, -190.57782194204628, -212.76477842917666, -0.04800000227987766, 0.0, 1.0240000486373901, 0.0, 0.0, 0.0, 0.0, 0.0, 1.706649062810135E9, 0.0, 2024-01-30 13:11:02.810
52.0, 203.003639544826, 3631.0819566291757, -76.57819149270654, -71.74811069993302, -0.04800000227987766, 0.0, 1.0240000486373901, 0.0, 0.0, 0.0, 0.0, 0.0, 1.706649062817225E9, 0.0, 2024-01-30 13:11:02.817
52.0, 281.32462441688403, 3473.3105370984413, -116.131373424083, -110.68046923866495, -0.04800000227987766, 0.0, 1.0240000486373901, 0.0, 0.0, 0.0, 0.0, 0.0, 1.706649062817225E9, 0.0, 2024-01-30 13:11:02.817
53.0, 181.2523814025335, 3508.203803685028, -217.58176957210526, -239.39847596362233, -0.04800000227987766, 0.0, 1.0240000486373901, 0.0, 0.0, 0.0, 0.0, 0.0, 1.706649062824116E9, 0.0, 2024-01-30 13:11:02.824
53.0, 113.82198520144448, 3585.02882857481, -33.57869175216183, -41.281015710905194, -0.04800000227987766, 0.0, 1.0240000486373901, 0.0, 0.0, 0.0, 0.0, 0.0, 1.706649062824116E9, 0.0, 2024-01-30 13:11:02.824
54.0, 43.83162748068571, 3594.9171240576543, -52.304370830301195, -49.295621315948665, -0.04800000227987766, 0.0, 1.0240000486373901, 0.0, 0.0, 0.0, 0.0, 0.0, 1.706649062838126E9, 0.0, 2024-01-30 13:11:02.838
54.0, -8.979499793611467, 3428.3569396310486, 186.3311655423604, 166.6761213252321, -0.04800000227987766, 0.0, 1.0240000486373901, 0.0, 0.0, 0.0, 0.0, 0.0, 1.706649062838126E9, 0.0, 2024-01-30 13:11:02.838
55.0, -197.41809896100312, 3558.30350349145, 398.48447032878175, 384.2148820478469, -0.04800000227987766, 0.0, 1.0240000486373901, 0.0, 0.0, 0.0, 0.0, 0.0, 1.706649062845121E9, 0.0, 2024-01-30 13:11:02.845
55.0, -182.66045373585075, 3665.5900135203265, 190.08228519791737, 196.67759876977652, -0.04800000227987766, 0.0, 1.0240000486373901, 0.0, 0.0, 0.0, 0.0, 0.0, 1.706649062845121E9, 0.0, 2024-01-30 13:11:02.845
56.0, 10.06781068071723, 3904.863202835433, 0.36090034572407603, -1.9148287773132324, -0.04800000227987766, 0.0, 1.0240000486373901, 0.0, 0.0, 0.0, 0.0, 0.0, 1.706649062854141E9, 0.0, 2024-01-30 13:11:02.854
56.0, 38.72853399114683, 4041.3732911180705, -182.70159263536334, -206.6313425018452, -0.04800000227987766, 0.0, 1.0240000486373901, 0.0, 0.0, 0.0, 0.0, 0.0, 1.706649062854141E9, 0.0, 2024-01-30 13:11:02.854
57.0, 186.61352798901498, 4129.044025879353, -74.00514032319188, -73.21789138251916, -0.04800000227987766, 0.0, 1.0240000486373901, 0.0, 0.0, 0.0, 0.0, 0.0, 1.706649062869237E9, 0.0, 2024-01-30 13:11:02.869
57.0, 279.9389914833009, 3972.319778336212, -110.93291248567402, -107.05650618160143, -0.04800000227987766, 0.0, 1.0240000486373901, 0.0, 0.0, 0.0, 0.0, 0.0, 1.706649062869237E9, 0.0, 2024-01-30 13:11:02.869
58.0, 172.38694855757058, 4002.556869477965, -212.53664453187957, -240.83833744656295, -0.04800000227987766, 0.0, 1.0240000486373901, 0.0, 0.0, 0.0, 0.0, 0.0, 1.70664906287881E9, 0.0, 2024-01-30 13:11:02.878
58.0, 106.44503253884614, 4093.1596858045086, -25.283593650441617, -32.50721041485667, -0.04800000227987766, 0.0, 1.0240000486373901, 0.0, 0.0, 0.0, 0.0, 0.0, 1.70664906287881E9, 0.0, 2024-01-30 13:11:02.878
59.0, 49.64156206184998, 4079.0116442721337, -56.90444777579978, -52.074366983026266, -0.04800000227987766, 0.0, 1.0240000486373901, 0.0, 0.0, 0.0, 0.0, 0.0, 1.706649062885138E9, 0.0, 2024-01-30 13:11:02.885
59.0, -3.091027313377708, 3917.5003247857094, 184.67812976194546, 168.28053840622306, -0.04800000227987766, 0.0, 1.0240000486373901, 0.0, 0.0, 0.0, 0.0, 0.0, 1.706649062885138E9, 0.0, 2024-01-30 13:11:02.885
60.0, -199.783585682977, 4041.896877111867, 404.44587085815147, 385.79685972910374, -0.04800000227987766, 0.0, 1.0240000486373901, 0.0, 0.0, 0.0, 0.0, 0.0, 1.706649062898266E9, 0.0, 2024-01-30 13:11:02.898
60.0, -171.1359520223923, 4153.020524495281, 185.45602895272896, 191.56515553034842, -0.04800000227987766, 0.0, 1.0240000486373901, 0.0, 0.0, 0.0, 0.0, 0.0, 1.706649062898266E9, 0.0, 2024-01-30 13:11:02.898
61.0, 11.573120412882417, 4382.3493198282085, 12.545494401361793, 4.158768750727177, -0.04800000227987766, 0.0, 1.0240000486373901, 0.0, 0.0, 0.0, 0.0, 0.0, 1.706649062905129E9, 0.0, 2024-01-30 13:11:02.905
61.0, 43.04250859003514, 4532.670858647209, -180.37537486292422, -204.3387838290073, -0.04800000227987766, 0.0, 1.0240000486373901, 0.0, 0.0, 0.0, 0.0, 0.0, 1.706649062905129E9, 0.0, 2024-01-30 13:11:02.905
62.0, 194.64496314385906, 4610.498176725116, -67.23966130334884, -67.57812224933878, -0.06400000303983688, 0.0, 1.0240000486373901, 0.0, 0.0, 0.0, 0.0, 0.0, 1.706649062913201E9, 0.0, 2024-01-30 13:11:02.913
62.0, 286.02567866118625, 4452.087234301958, -113.69295865297318, -106.48056158842519, -0.06400000303983688, 0.0, 1.0240000486373901, 0.0, 0.0, 0.0, 0.0, 0.0, 1.706649062913201E9, 0.0, 2024-01-30 13:11:02.913
63.0, 169.04534794716164, 4485.462101506535, -216.14564798912033, -241.71347403619438, -0.06400000303983688, 0.0, 1.0240000486373901, 0.0, 0.0, 0.0, 0.0, 0.0, 1.706649062930138E9, 0.0, 2024-01-30 13:11:02.930
63.0, 110.50095404079184, 4568.891789718065, -35.429942230228335, -37.91136585082859, -0.06400000303983688, 0.0, 1.0240000486373901, 0.0, 0.0, 0.0, 0.0, 0.0, 1.706649062930138E9, 0.0, 2024-01-30 13:11:02.930
64.0, 60.06279328837991, 4566.890943241771, -56.61273557925597, -54.138791758567095, -0.06400000303983688, 0.0, 1.0240000486373901, 0.0, 0.0, 0.0, 0.0, 0.0, 1.706649062935101E9, 0.0, 2024-01-30 13:11:02.935
64.0, -10.804570971988142, 4407.9900739244185, 177.2469485499896, 169.49600589182228, -0.06400000303983688, 0.0, 1.0240000486373901, 0.0, 0.0, 0.0, 0.0, 0.0, 1.706649062935101E9, 0.0, 2024-01-30 13:11:02.935
65.0, -204.3219542792067, 4528.358753998298, 395.8665403597988, 388.4372290978208, -0.06400000303983688, 0.0, 1.0240000486373901, 0.0, 0.0, 0.0, 0.0, 0.0, 1.706649062941497E9, 0.0, 2024-01-30 13:11:02.941
65.0, -173.0414310498163, 4644.306872324552, 187.34467843035236, 188.37128096818924, -0.06400000303983688, 0.0, 1.0240000486373901, 0.0, 0.0, 0.0, 0.0, 0.0, 1.706649062941497E9, 0.0, 2024-01-30 13:11:02.941
66.0, 10.04911118093878, 4877.528903511353, 3.509896108414978, -4.080230851657689, -0.06400000303983688, 0.0, 1.0240000486373901, 0.0, 0.0, 0.0, 0.0, 0.0, 1.706649062960137E9, 0.0, 2024-01-30 13:11:02.960
66.0, 43.092997239436954, 5022.165794397704, -181.13831445388496, -205.13912241952494, -0.06400000303983688, 0.0, 1.0240000486373901, 0.0, 0.0, 0.0, 0.0, 0.0, 1.706649062960137E9, 0.0, 2024-01-30 13:11:02.960
67.0, 199.95375113096088, 5109.137167867273, -63.357645149342716, -67.42478635115549, -0.06400000303983688, 0.0, 1.0240000486373901, 0.0, 0.0, 0.0, 0.0, 0.0, 1.706649062966506E9, 0.0, 2024-01-30 13:11:02.966
67.0, 289.96566326450557, 4941.679407451302, -114.14174664765596, -106.42072318913415, -0.06400000303983688, 0.0, 1.0240000486373901, 0.0, 0.0, 0.0, 0.0, 0.0, 1.706649062966506E9, 0.0, 2024-01-30 13:11:02.966
68.0, 170.99944567400962, 4975.989249644801, -216.72907238220796, -237.521046185866, -0.06400000303983688, 0.0, 1.0240000486373901, 0.0, 0.0, 0.0, 0.0, 0.0, 1.706649062973126E9, 0.0, 2024-01-30 13:11:02.973
68.0, 100.54721030872315, 5062.852166015655, -27.55371292354539, -33.69275870081037, -0.06400000303983688, 0.0, 1.0240000486373901, 0.0, 0.0, 0.0, 0.0, 0.0, 1.706649062973126E9, 0.0, 2024-01-30 13:11:02.973
69.0, 71.84534809878096, 5056.636452289298, -53.908787911292166, -53.39829156734049, -0.06400000303983688, 0.0, 1.0240000486373901, 0.0, 0.0, 0.0, 0.0, 0.0, 1.706649062989114E9, 0.0, 2024-01-30 13:11:02.989
69.0, -16.31157365674153, 4904.2355290949345, 188.42176961759105, 168.37029600515962, -0.06400000303983688, 0.0, 1.0240000486373901, 0.0, 0.0, 0.0, 0.0, 0.0, 1.706649062989114E9, 0.0, 2024-01-30 13:11:02.989
70.0, -206.1114964080043, 5029.282824013382, 402.12339298566803, 387.6368905073032, -0.06400000303983688, 0.0, 1.0240000486373901, 0.0, 0.0, 0.0, 0.0, 0.0, 1.706649062996128E9, 0.0, 2024-01-30 13:11:02.996
70.0, -166.0571678825654, 5133.674651476555, 182.49028828786686, 193.52112320717424, -0.06400000303983688, 0.0, 1.0240000486373901, 0.0, 0.0, 0.0, 0.0, 0.0, 1.706649062996128E9, 0.0, 2024-01-30 13:11:02.996
71.0, 8.068834154400975, 5360.815605335403, 2.9526510150171816, 1.8811696777120233, -0.06400000303983688, 0.0, 1.0240000486373901, 0.0, 0.0, 0.0, 0.0, 0.0, 1.706649063004123E9, 0.0, 2024-01-30 13:11:03.004
71.0, 42.11875330097973, 5508.485555085819, -184.5640628132969, -204.5220389268361, -0.06400000303983688, 0.0, 1.0240000486373901, 0.0, 0.0, 0.0, 0.0, 0.0, 1.706649063004123E9, 0.0, 2024-01-30 13:11:03.004
72.0, 198.22778730141, 5589.996674620081, -72.20624844450504, -71.0898883077316, -0.06400000303983688, 0.0, 1.0240000486373901, 0.0, 0.0, 0.0, 0.0, 0.0, 1.706649063020233E9, 0.0, 2024-01-30 13:11:03.020
72.0, 303.10954165877774, 5419.120645644609, -110.9067331859842, -107.16870318027213, -0.06400000303983688, 0.0, 1.0240000486373901, 0.0, 0.0, 0.0, 0.0, 0.0, 1.706649063020233E9, 0.0, 2024-01-30 13:11:03.020
73.0, 173.47712939465418, 5468.072196164634, -216.32890308694914, -241.79201193526387, -0.06400000303983688, 0.0, 1.0240000486373901, 0.0, 0.0, 0.0, 0.0, 0.0, 1.706649063027476E9, 0.0, 2024-01-30 13:11:03.027
73.0, 110.71786823822185, 5557.8821537005715, -31.839638272766024, -31.213205030187964, -0.06400000303983688, 0.0, 1.0240000486373901, 0.0, 0.0, 0.0, 0.0, 0.0, 1.706649063027476E9, 0.0, 2024-01-30 13:11:03.027
74.0, 70.96834155917168, 5539.003138724249, -67.2003923538141, -58.30504030920565, -0.06400000303983688, 0.0, 1.0240000486373901, 0.0, 0.0, 0.0, 0.0, 0.0, 1.706649063034082E9, 0.0, 2024-01-30 13:11:03.034
74.0, -7.65931510925293, 5387.181900023017, -309.91054972819984, 170.7825314765796, -0.06400000303983688, 0.0, 1.0240000486373901, 0.0, 0.0, 0.0, 0.0, 0.0, 1.706649063034082E9, 0.0, 2024-01-30 13:11:03.034
75.0, -206.90622514858842, 5513.482061426621, -94.99719877447933, 384.7048089420423, -0.06400000303983688, 0.0, 1.0240000486373901, 0.0, 0.0, 0.0, 0.0, 0.0, 1.70664906304888E9, 0.0, 2024-01-30 13:11:03.048
75.0, -158.83355111815035, 5618.079583387356, -309.75721383001655, 186.29189659282565, -0.06400000303983688, 0.0, 1.0240000486373901, 0.0, 0.0, 0.0, 0.0, 0.0, 1.70664906304888E9, 0.0, 2024-01-30 13:11:03.048
76.0, 8.777545196004212, 5858.878651884384, -493.8986679483205, -0.07105809915810823, -0.06400000303983688, 0.0, 1.0240000486373901, 0.0, 0.0, 0.0, 0.0, 0.0, 1.706649063053461E9, 0.0, 2024-01-30 13:11:03.053
76.0, 38.89308958919719, 6009.484423100017, -677.8175980192609, -200.64002277282998, -0.06400000303983688, 0.0, 1.0240000486373901, 0.0, 0.0, 0.0, 0.0, 0.0, 1.706649063053461E9, 0.0, 2024-01-30 13:11:03.053
77.0, 192.33931482117623, 6094.425030893646, -566.3872788394801, -68.793589734938, -0.06400000303983688, 0.0, 1.0240000486373901, 0.0, 0.0, 0.0, 0.0, 0.0, 1.706649063062244E9, 0.0, 2024-01-30 13:11:03.062
77.0, 295.12672520335764, 5921.095627547242, -607.5934965512715, -108.57116566365585, -0.06400000303983688, 0.0, 1.0240000486373901, 0.0, 0.0, 0.0, 0.0, 0.0, 1.706649063062244E9, 0.0, 2024-01-30 13:11:03.062
78.0, 161.68709478434175, 5969.76668557059, -710.1658626860008, -231.9672947516665, -0.06400000303983688, 0.0, 1.0240000486373901, 0.0, 0.0, 0.0, 0.0, 0.0, 1.70664906307912E9, 0.0, 2024-01-30 13:11:03.079
78.0, 94.47361278068274, 6048.09515024256, -523.5672942968085, -31.905086521990597, -0.06400000303983688, 0.0, 1.0240000486373901, 0.0, 0.0, 0.0, 0.0, 0.0, 1.70664906307912E9, 0.0, 2024-01-30 13:11:03.079
79.0, 67.62300104880705, 6034.377197205089, -559.9527809657156, -52.0257482836023, -0.06400000303983688, 0.0, 1.0240000486373901, 0.0, 0.0, 0.0, 0.0, 0.0, 1.706649063085119E9, 0.0, 2024-01-30 13:11:03.085
79.0, -21.09490570006892, 5889.549571420997, -796.3873862144537, 177.76866459380835, -0.06400000303983688, 0.0, 1.0240000486373901, 0.0, 0.0, 0.0, 0.0, 0.0, 1.706649063085119E9, 0.0, 2024-01-30 13:11:03.085
80.0, -212.60770263103768, 6014.439790541306, -579.1777366879396, 387.75656730588526, -0.06400000303983688, 0.0, 1.0240000486373901, 0.0, 0.0, 0.0, 0.0, 0.0, 1.706649063092779E9, 0.0, 2024-01-30 13:11:03.092
80.0, -151.0526892603375, 6117.006546826102, -806.6571514927782, 184.61268151272088, -0.06400000303983688, 0.0, 1.0240000486373901, 0.0, 0.0, 0.0, 0.0, 0.0, 1.706649063092779E9, 0.0, 2024-01-30 13:11:03.092
81.0, 21.91020389040932, 6344.188639584463, -989.0819915314205, -3.7324201557785273, -0.06400000303983688, 0.0, 1.0240000486373901, 0.0, 0.0, 0.0, 0.0, 0.0, 1.706649063110129E9, 0.0, 2024-01-30 13:11:03.110
81.0, 51.0234550954774, 6492.726246124599, -1174.0817526895553, -207.8206306877546, -0.06400000303983688, 0.0, 1.0240000486373901, 0.0, 0.0, 0.0, 0.0, 0.0, 1.706649063110129E9, 0.0, 2024-01-30 13:11:03.110
82.0, 208.58731017867103, 6580.73731178185, -1066.0285631697625, -72.66812608903274, -0.04800000227987766, 0.0, 1.0240000486373901, 0.0, 0.0, 0.0, 0.0, 0.0, 1.706649063115789E9, 0.0, 2024-01-30 13:11:03.115
82.0, 321.3527736426331, 6399.524199328851, -1113.5514719067141, -116.34641767153516, -0.04800000227987766, 0.0, 1.0240000486373901, 0.0, 0.0, 0.0, 0.0, 0.0, 1.706649063115789E9, 0.0, 2024-01-30 13:11:03.115
83.0, 187.24744103150442, 6444.934064590838, -1209.1264852243476, -241.489080038853, -0.04800000227987766, 0.0, 1.0240000486373901, 0.0, 0.0, 0.0, 0.0, 0.0, 1.70664906312314E9, 0.0, 2024-01-30 13:11:03.123
83.0, 122.34521720046178, 6531.98023605952, -1025.4225994008593, -44.95359746739268, -0.04800000227987766, 0.0, 1.0240000486373901, 0.0, 0.0, 0.0, 0.0, 0.0, 1.70664906312314E9, 0.0, 2024-01-30 13:11:03.123
84.0, 113.37506715673953, 6512.798289186787, -1067.432895603124, -72.64381673932076, -0.04800000227987766, 0.0, 1.0240000486373901, 0.0, 0.0, 0.0, 0.0, 0.0, 1.706649063137126E9, 0.0, 2024-01-30 13:11:03.137
84.0, 26.231658289209008, 6361.523075879086, -822.8995370003395, 154.63738336786628, -0.04800000227987766, 0.0, 1.0240000486373901, 0.0, 0.0, 0.0, 0.0, 0.0, 1.706649063137126E9, 0.0, 2024-01-30 13:11:03.137
85.0, -157.1505961380899, 6488.511378874537, -605.0017458819784, 370.0331814158708, -0.04800000227987766, 0.0, 1.0240000486373901, 0.0, 0.0, 0.0, 0.0, 0.0, 1.706649063143132E9, 0.0, 2024-01-30 13:11:03.143
85.0, -85.80078478343785, 6586.990424507763, -829.7772130188532, 164.2264868542552, -0.04800000227987766, 0.0, 1.0240000486373901, 0.0, 0.0, 0.0, 0.0, 0.0, 1.706649063143132E9, 0.0, 2024-01-30 13:11:03.143
86.0, 82.90984211768955, 6817.800220223144, -1008.5556506006978, -22.0841092383489, -0.04800000227987766, 0.0, 1.0240000486373901, 0.0, 0.0, 0.0, 0.0, 0.0, 1.706649063151448E9, 0.0, 2024-01-30 13:11:03.151
86.0, 96.82413990283385, 6965.197157276794, -1187.702468328178, -224.24253139318898, -0.04800000227987766, 0.0, 1.0240000486373901, 0.0, 0.0, 0.0, 0.0, 0.0, 1.706649063151448E9, 0.0, 2024-01-30 13:11:03.151
87.0, 257.2602381519973, 7052.093732747249, -1076.586300744675, -92.60179285285994, -0.04800000227987766, 0.0, 1.0240000486373901, 0.0, 0.0, 0.0, 0.0, 0.0, 1.706649063185243E9, 0.0, 2024-01-30 13:11:03.185
87.0, 360.33188093081117, 6874.556941950694, -1127.5723568405956, -133.2993841706775, -0.04800000227987766, 0.0, 1.0240000486373901, 0.0, 0.0, 0.0, 0.0, 0.0, 1.706649063185243E9, 0.0, 2024-01-30 13:11:03.185
88.0, 203.85446678474545, 6930.273971490562, -1215.6750500467606, -256.4598995614797, -0.04800000227987766, 0.0, 1.0240000486373901, 0.0, 0.0, 0.0, 0.0, 0.0, 1.706649063190806E9, 0.0, 2024-01-30 13:11:03.190
88.0, 127.13789899367839, 7022.821535794064, -1026.9970972822048, -52.37729887943715, -0.04800000227987766, 0.0, 1.0240000486373901, 0.0, 0.0, 0.0, 0.0, 0.0, 1.706649063190806E9, 0.0, 2024-01-30 13:11:03.190
89.0, 112.02309332275763, 7002.588677033782, -1064.4821145380847, -77.60666398052126, -0.04800000227987766, 0.0, 1.0240000486373901, 0.0, 0.0, 0.0, 0.0, 0.0, 1.706649063198128E9, 0.0, 2024-01-30 13:11:03.198
89.0, -1.3893728335388005, 6859.926453324035, -1299.562876002863, 156.2268408490345, -0.04800000227987766, 0.0, 1.0240000486373901, 0.0, 0.0, 0.0, 0.0, 0.0, 1.706649063198128E9, 0.0, 2024-01-30 13:11:03.198
90.0, -194.151296349708, 6985.089685141109, -1081.9493172811344, 377.04175393283367, -0.04800000227987766, 0.0, 1.0240000486373901, 0.0, 0.0, 0.0, 0.0, 0.0, 1.706649063206113E9, 0.0, 2024-01-30 13:11:03.206
90.0, -122.89498249394819, 7090.771778088994, -1303.9123796513304, 173.3742821458727, -0.04800000227987766, 0.0, 1.0240000486373901, 0.0, 0.0, 0.0, 0.0, 0.0, 1.706649063206113E9, 0.0, 2024-01-30 13:11:03.206
91.0, 35.60197762819007, 7323.459003582131, -1476.901452101767, -12.4501269524917, -0.04800000227987766, 0.0, 1.0240000486373901, 0.0, 0.0, 0.0, 0.0, 0.0, 1.706649063210963E9, 0.0, 2024-01-30 13:11:03.210
91.0, 49.88652550894767, 7471.188791731838, -1659.8667076840065, -213.60999581916258, -0.04800000227987766, 0.0, 1.0240000486373901, 0.0, 0.0, 0.0, 0.0, 0.0, 1.706649063210963E9, 0.0, 2024-01-30 13:11:03.210
92.0, 212.79469762882218, 7564.936863921117, -1549.6780352895148, -80.166625500191, -0.04800000227987766, 0.0, 1.0240000486373901, 0.0, 0.0, 0.0, 0.0, 0.0, 1.70664906321721E9, 0.0, 2024-01-30 13:11:03.217
92.0, 334.2479486898519, 7366.580050071236, -1599.5496011986397, -125.14266236731783, -0.04800000227987766, 0.0, 1.0240000486373901, 0.0, 0.0, 0.0, 0.0, 0.0, 1.70664906321721E9, 0.0, 2024-01-30 13:11:03.217
93.0, 173.5107884942554, 7429.343051127624, -1694.776803820394, -246.13403578381985, -0.04800000227987766, 0.0, 1.0240000486373901, 0.0, 0.0, 0.0, 0.0, 0.0, 1.706649063229135E9, 0.0, 2024-01-30 13:11:03.229
93.0, 113.39189670654014, 7525.608075987082, -1505.4069695640355, -40.9444247148931, -0.04800000227987766, 0.0, 1.0240000486373901, 0.0, 0.0, 0.0, 0.0, 0.0, 1.706649063229135E9, 0.0, 2024-01-30 13:11:03.229
94.0, 115.59843768039718, 7488.414770927746, -1548.9693242479116, -75.1121507100761, -0.04800000227987766, 0.0, 1.0240000486373901, 0.0, 0.0, 0.0, 0.0, 0.0, 1.706649063235111E9, 0.0, 2024-01-30 13:11:03.235
94.0, -5.806194681208581, 7345.789946217556, -1772.037527055014, 160.08641760330647, -0.04800000227987766, 0.0, 1.0240000486373901, 0.0, 0.0, 0.0, 0.0, 0.0, 1.706649063235111E9, 0.0, 2024-01-30 13:11:03.235
95.0, -203.76657913578674, 7477.871992952656, -1554.9774735267274, 379.89529759902507, -0.04800000227987766, 0.0, 1.0240000486373901, 0.0, 0.0, 0.0, 0.0, 0.0, 1.70664906324145E9, 0.0, 2024-01-30 13:11:03.241
95.0, -116.8513041655533, 7572.222189034801, -1785.388969896827, 167.53629831504077, -0.04800000227987766, 0.0, 1.0240000486373901, 0.0, 0.0, 0.0, 0.0, 0.0, 1.70664906324145E9, 0.0, 2024-01-30 13:11:03.241
96.0, 49.97067325795069, 7797.616609614342, -1960.3040908244438, -14.589349727146327, -0.04800000227987766, 0.0, 1.0240000486373901, 0.0, 0.0, 0.0, 0.0, 0.0, 1.706649063260112E9, 0.0, 2024-01-30 13:11:03.260
96.0, 73.2945593316108, 7957.280418522656, -2144.264159794897, -221.1197149301879, -0.04800000227987766, 0.0, 1.0240000486373901, 0.0, 0.0, 0.0, 0.0, 0.0, 1.706649063260112E9, 0.0, 2024-01-30 13:11:03.260
97.0, 248.5107422056608, 8042.075170218013, -2036.6747178696096, -91.23672936903313, -0.04800000227987766, 0.0, 1.0240000486373901, 0.0, 0.0, 0.0, 0.0, 0.0, 1.706649063268224E9, 0.0, 2024-01-30 13:11:03.268
97.0, 381.4305265308358, 7851.145797680132, -2091.2996966224164, -142.9371063564904, -0.04800000227987766, 0.0, 1.0240000486373901, 0.0, 0.0, 0.0, 0.0, 0.0, 1.706649063268224E9, 0.0, 2024-01-30 13:11:03.268
98.0, 235.9820773540996, 7910.741103474051, -2189.814271305222, -260.07264291867614, -0.04800000227987766, 0.0, 1.0240000486373901, 0.0, 0.0, 0.0, 0.0, 0.0, 1.706649063274459E9, 0.0, 2024-01-30 13:11:03.274
98.0, 196.2643398246728, 7994.615839780308, -2008.8517321492545, -67.32193910237402, -0.04800000227987766, 0.0, 1.0240000486373901, 0.0, 0.0, 0.0, 0.0, 0.0, 1.706649063274459E9, 0.0, 2024-01-30 13:11:03.274
99.0, 245.86663293698803, 7952.564404678531, -2076.4616435482167, -114.31752194557339, -0.04800000227987766, 0.0, 1.0240000486373901, 0.0, 0.0, 0.0, 0.0, 0.0, 1.706649063289581E9, 0.0, 2024-01-30 13:11:03.289
99.0, 137.2300190241076, 7806.147321413271, -2315.79841116257, 115.2412772346288, -0.04800000227987766, 0.0, 1.0240000486373901, 0.0, 0.0, 0.0, 0.0, 0.0, 1.706649063289581E9, 0.0, 2024-01-30 13:11:03.289
100.0, -51.545171139296144, 7942.174962601624, -2100.069762018509, 331.8675023680553, -0.04800000227987766, 0.0, 1.0240000486373901, 0.0, 0.0, 0.0, 0.0, 0.0, 1.706649063295134E9, 0.0, 2024-01-30 13:11:03.295
100.0, 71.63965360121801, 8031.465074043721, -2341.9926704522222, 109.90817989781499, -0.04800000227987766, 0.0, 1.0240000486373901, 0.0, 0.0, 0.0, 0.0, 0.0, 1.706649063295134E9, 0.0, 2024-01-30 13:11:03.295
0.0, 903.1278708497994, -170.97700627427548, -265.1289876587689, -269.3176756091416, -0.04800000227987766, 0.0, 1.0240000486373901, 0.0, 0.0, 0.0, 0.0, 0.0, 1.706649063303097E9, 0.0, 2024-01-30 13:11:03.303
1.0, 937.4545425930992, -15.28123121894896, -451.0936430054717, -475.01030322210863, -0.04800000227987766, 0.0, 1.0240000486373901, 0.0, 0.0, 0.0, 0.0, 0.0, 1.70664906331023E9, 0.0, 2024-01-30 13:11:03.310
1.0, 1115.2587362364866, 63.9560291422531, -344.4728351687081, -348.12297752546147, -0.04800000227987766, 0.0, 1.0240000486373901, 0.0, 0.0, 0.0, 0.0, 0.0, 1.70664906331023E9, 0.0, 2024-01-30 13:11:03.310
2.0, 1239.2027606680058, -129.77078856248409, -399.48302361695096, -392.9868173939176, -0.04800000227987766, 0.0, 1.0240000486373901, 0.0, 0.0, 0.0, 0.0, 0.0, 1.706649063317149E9, 0.0, 2024-01-30 13:11:03.317
2.0, 1033.4671242055483, -57.20176982227713, -474.61574377678335, -501.18025316204876, -0.04800000227987766, 0.0, 1.0240000486373901, 0.0, 0.0, 0.0, 0.0, 0.0, 1.706649063317149E9, 0.0, 2024-01-30 13:11:03.317
3.0, 935.5789827653207, 35.89181987475604, -277.0480488175526, -292.3704189360142, -0.04800000227987766, 0.0, 1.0240000486373901, 0.0, 0.0, 0.0, 0.0, 0.0, 1.706649063334105E9, 0.0, 2024-01-30 13:11:03.334
3.0, 957.7752890023403, 2.4421546710655093, -331.7440856695175, -325.756505840458, -0.04800000227987766, 0.0, 1.0240000486373901, 0.0, 0.0, 0.0, 0.0, 0.0, 1.706649063334105E9, 0.0, 2024-01-30 13:11:03.334
4.0, 793.4740041489713, -130.51876855362207, -543.1774597144686, -566.9370441329665, -0.04800000227987766, 0.0, 1.0240000486373901, 0.0, 0.0, 0.0, 0.0, 0.0, 1.706649063339114E9, 0.0, 2024-01-30 13:11:03.339
4.0, 559.3861861224286, 6.664501721039414, -317.23140389146283, -337.2997070536949, -0.04800000227987766, 0.0, 1.0240000486373901, 0.0, 0.0, 0.0, 0.0, 0.0, 1.706649063339114E9, 0.0, 2024-01-30 13:11:03.339
5.0, 646.6492717885412, 101.39242769870907, -539.7068325555883, -546.0796220800839, -0.04800000227987766, 0.0, 1.0240000486373901, 0.0, 0.0, 0.0, 0.0, 0.0, 1.70664906334814E9, 0.0, 2024-01-30 13:11:03.348
5.0, 782.1421072832309, 334.49104218697175, -705.9491254859604, -720.8638465092517, -0.04800000227987766, 0.0, 1.0240000486373901, 0.0, 0.0, 0.0, 0.0, 0.0, 1.70664906334814E9, 0.0, 2024-01-30 13:11:03.348
6.0, 773.4655393860303, 500.72211541747674, -883.0464780377224, -912.3411143906415, -0.04800000227987766, 0.0, 1.0240000486373901, 0.0, 0.0, 0.0, 0.0, 0.0, 1.706649063362222E9, 0.0, 2024-01-30 13:11:03.362
6.0, 938.8270858768374, 588.0637389826588, -771.1000526640564, -784.1560434093699, -0.04800000227987766, 0.0, 1.0240000486373901, 0.0, 0.0, 0.0, 0.0, 0.0, 1.706649063362222E9, 0.0, 2024-01-30 13:11:03.362
7.0, 1077.0762276388705, 388.8280486431904, -820.709825576283, -828.1559663880616, -0.04800000227987766, 0.0, 1.0240000486373901, 0.0, 0.0, 0.0, 0.0, 0.0, 1.706649063369112E9, 0.0, 2024-01-30 13:11:03.369
7.0, 883.9103949274868, 463.03140366403386, -908.7302409834228, -941.8620146908797, -0.04800000227987766, 0.0, 1.0240000486373901, 0.0, 0.0, 0.0, 0.0, 0.0, 1.706649063369112E9, 0.0, 2024-01-30 13:11:03.369
8.0, 808.6336886193603, 551.1060476205312, -711.3757203216664, -731.3767052846961, -0.04800000227987766, 0.0, 1.0240000486373901, 0.0, 0.0, 0.0, 0.0, 0.0, 1.70664906337817E9, 0.0, 2024-01-30 13:11:03.378
8.0, 836.5857008881867, 519.2383600980975, -768.2857779473998, -768.7420457419939, -0.04800000227987766, 0.0, 1.0240000486373901, 0.0, 0.0, 0.0, 0.0, 0.0, 1.70664906337817E9, 0.0, 2024-01-30 13:11:03.378
9.0, 680.3588600391522, 387.74721755599603, -983.5413297470659, -1013.0902792969719, -0.04800000227987766, 0.0, 1.0240000486373901, 0.0, 0.0, 0.0, 0.0, 0.0, 1.70664906339412E9, 0.0, 2024-01-30 13:11:03.394
9.0, 454.2594683179632, 522.3723962609656, -764.8506798380986, -789.967847940512, -0.04800000227987766, 0.0, 1.0240000486373901, 0.0, 0.0, 0.0, 0.0, 0.0, 1.70664906339412E9, 0.0, 2024-01-30 13:11:03.394
10.0, 555.5247394181788, 619.0151510159485, -999.5892404569313, -1009.5523339388892, -0.04800000227987766, 0.0, 1.0240000486373901, 0.0, 0.0, 0.0, 0.0, 0.0, 1.706649063399927E9, 0.0, 2024-01-30 13:11:03.399
10.0, 693.6168053820729, 848.7328959442675, -1169.429317144677, -1189.3854233082384, -0.04800000227987766, 0.0, 1.0240000486373901, 0.0, 0.0, 0.0, 0.0, 0.0, 1.706649063399927E9, 0.0, 2024-01-30 13:11:03.399
11.0, 702.336382128764, 1021.1609834013507, -1347.8468543807976, -1387.4187358119525, -0.04800000227987766, 0.0, 1.0240000486373901, 0.0, 0.0, 0.0, 0.0, 0.0, 1.706649063409115E9, 0.0, 2024-01-30 13:11:03.409
11.0, 872.67947536055, 1105.929555797018, -1241.85434973659, -1262.0161503977142, -0.04800000227987766, 0.0, 1.0240000486373901, 0.0, 0.0, 0.0, 0.0, 0.0, 1.706649063409115E9, 0.0, 2024-01-30 13:11:03.409
12.0, 1021.9762815916911, 904.7715568803251, -1298.1622834694572, -1312.86757009523, -0.04800000227987766, 0.0, 1.0240000486373901, 0.0, 0.0, 0.0, 0.0, 0.0, 1.706649063425149E9, 0.0, 2024-01-30 13:11:03.425
12.0, 832.2698563393205, 981.2786902738735, -1384.1968120001256, -1424.9168427176774, -0.04800000227987766, 0.0, 1.0240000486373901, 0.0, 0.0, 0.0, 0.0, 0.0, 1.706649063425149E9, 0.0, 2024-01-30 13:11:03.425
13.0, 754.5659549599513, 1066.5446693636477, -1189.7481936039403, -1219.540236650966, -0.04800000227987766, 0.0, 1.0240000486373901, 0.0, 0.0, 0.0, 0.0, 0.0, 1.706649063430581E9, 0.0, 2024-01-30 13:11:03.430
13.0, 810.8215300934389, 1013.7148425895721, -1246.7293093288317, -1260.439782566391, -0.04800000227987766, 0.0, 1.0240000486373901, 0.0, 0.0, 0.0, 0.0, 0.0, 1.706649063430581E9, 0.0, 2024-01-30 13:11:03.430
14.0, 653.3680020589381, 886.7751582935452, -1469.4347418402322, -1018.0606063380837, -0.04800000227987766, 0.0, 1.0240000486373901, 0.0, 0.0, 0.0, 0.0, 0.0, 1.706649063437457E9, 0.0, 2024-01-30 13:11:03.437
14.0, 450.60932596120983, 1026.004153843969, -1248.9414601526223, -799.7476863246411, -0.04800000227987766, 0.0, 1.0240000486373901, 0.0, 0.0, 0.0, 0.0, 0.0, 1.706649063437457E9, 0.0, 2024-01-30 13:11:03.437
15.0, 590.5975212026387, 1107.3282783804461, -1011.2689480185509, -1028.491187314503, -0.04800000227987766, 0.0, 1.0240000486373901, 0.0, 0.0, 0.0, 0.0, 0.0, 1.706649063456128E9, 0.0, 2024-01-30 13:11:03.456
15.0, 750.5792216071859, 1327.9094477170147, -1182.0851385947317, -1208.0063851876184, -0.04800000227987766, 0.0, 1.0240000486373901, 0.0, 0.0, 0.0, 0.0, 0.0, 1.706649063456128E9, 0.0, 2024-01-30 13:11:03.456
16.0, 751.3028922486119, 1490.4155805916525, -1362.0659540123306, -1405.8564425935037, -0.04800000227987766, 0.0, 1.0240000486373901, 0.0, 0.0, 0.0, 0.0, 0.0, 1.706649063464237E9, 0.0, 2024-01-30 13:11:03.464
16.0, 931.2163894670084, 1581.9122330076061, -1259.353341629263, -1277.8882858096622, -0.04800000227987766, 0.0, 1.0240000486373901, 0.0, 0.0, 0.0, 0.0, 0.0, 1.706649063464237E9, 0.0, 2024-01-30 13:11:03.464
17.0, 1113.4018759084865, 1358.5205288543366, -1325.9347805404104, -1336.3017832175829, -0.04800000227987766, 0.0, 1.0240000486373901, 0.0, 0.0, 0.0, 0.0, 0.0, 1.706649063469128E9, 0.0, 2024-01-30 13:11:03.469
17.0, 905.9945041658357, 1445.7275160211138, -1408.6220986107364, -1450.8829681100324, -0.04800000227987766, 0.0, 1.0240000486373901, 0.0, 0.0, 0.0, 0.0, 0.0, 1.706649063469128E9, 0.0, 2024-01-30 13:11:03.469
18.0, 832.0043234424666, 1535.7917867540382, -1216.3987206881866, -1238.0527414316311, -0.04800000227987766, 0.0, 1.0240000486373901, 0.0, 0.0, 0.0, 0.0, 0.0, 1.706649063482096E9, 0.0, 2024-01-30 13:11:03.482
18.0, 906.4545118603855, 1473.6757883899845, -1284.5696170805022, -1292.6365812849253, -0.04800000227987766, 0.0, 1.0240000486373901, 0.0, 0.0, 0.0, 0.0, 0.0, 1.706649063482096E9, 0.0, 2024-01-30 13:11:03.482
19.0, 734.1498411018401, 1363.7451690924354, -1496.3882008208893, -1535.058766362723, -0.04800000227987766, 0.0, 1.0240000486373901, 0.0, 0.0, 0.0, 0.0, 0.0, 1.706649063486459E9, 0.0, 2024-01-30 13:11:03.486
19.0, 515.3694335939363, 1503.6211673351936, -1273.0338956671767, -1308.6153038456105, -0.04800000227987766, 0.0, 1.0240000486373901, 0.0, 0.0, 0.0, 0.0, 0.0, 1.706649063486459E9, 0.0, 2024-01-30 13:11:03.486
20.0, 649.1568747088313, 1577.8544415556826, -1517.739289667923, -1531.5170811046846, -0.04800000227987766, 0.0, 1.0240000486373901, 0.0, 0.0, 0.0, 0.0, 0.0, 1.706649063498104E9, 0.0, 2024-01-30 13:11:03.498
20.0, 783.8157125134021, 1808.4884619731456, -1681.5543875270523, -1701.6563497888856, -0.04800000227987766, 0.0, 1.0240000486373901, 0.0, 0.0, 0.0, 0.0, 0.0, 1.706649063498104E9, 0.0, 2024-01-30 13:11:03.498
21.0, 758.5003297133371, 1989.6604355266318, -1852.4883849518374, -1896.802459526807, -0.04800000227987766, 0.0, 1.0240000486373901, 0.0, 0.0, 0.0, 0.0, 0.0, 1.706649063512187E9, 0.0, 2024-01-30 13:11:03.512
21.0, 912.6047773375176, 2068.688261490315, -1744.0163266370073, -1761.4891392299905, -0.04800000227987766, 0.0, 1.0240000486373901, 0.0, 0.0, 0.0, 0.0, 0.0, 1.706649063512187E9, 0.0, 2024-01-30 13:11:03.512
22.0, 1081.2256466397084, 1850.0424903808162, -1800.0325481733307, -1817.7559340633452, -0.04800000227987766, 0.0, 1.0240000486373901, 0.0, 0.0, 0.0, 0.0, 0.0, 1.706649063519074E9, 0.0, 2024-01-30 13:11:03.519
22.0, 1325.8506327914074, 1955.1860377350822, -1874.2714322437532, -1910.4175653154962, -0.04800000227987766, 0.0, 1.0240000486373901, 0.0, 0.0, 0.0, 0.0, 0.0, 1.706649063519074E9, 0.0, 2024-01-30 13:11:03.519
23.0, 1223.6017680028453, 2045.4784423653036, -1680.7465691366233, -1698.8626445219852, -0.04800000227987766, 0.0, 1.0240000486373901, 0.0, 0.0, 0.0, 0.0, 0.0, 1.706649063529111E9, 0.0, 2024-01-30 13:11:03.529
23.0, 1308.0935878017917, 1977.7077152682468, -1741.7705167136155, -1749.5233293217607, -0.04800000227987766, 0.0, 1.0240000486373901, 0.0, 0.0, 0.0, 0.0, 0.0, 1.706649063529111E9, 0.0, 2024-01-30 13:11:03.529
24.0, 1093.7000829419121, 1871.3374807285145, -1944.5572420610115, -1982.6069842102006, -0.04800000227987766, 0.0, 1.0240000486373901, 0.0, 0.0, 0.0, 0.0, 0.0, 1.706649063543743E9, 0.0, 2024-01-30 13:11:03.543
24.0, 851.0104950172827, 2021.2102315528318, -1713.891432493925, -1749.0277925776318, -0.04800000227987766, 0.0, 1.0240000486373901, 0.0, 0.0, 0.0, 0.0, 0.0, 1.706649063543743E9, 0.0, 2024-01-30 13:11:03.543
25.0, 981.1178745757788, 2097.3620744505897, -1954.5165956430137, -1971.7014359394088, -0.04800000227987766, 0.0, 1.0240000486373901, 0.0, 0.0, 0.0, 0.0, 0.0, 1.706649063550104E9, 0.0, 2024-01-30 13:11:03.550
25.0, 1103.5808986248448, 2326.485175285954, -2114.81992744375, -2137.0349331805483, -0.04800000227987766, 0.0, 1.0240000486373901, 0.0, 0.0, 0.0, 0.0, 0.0, 1.706649063550104E9, 0.0, 2024-01-30 13:11:03.550
26.0, 1057.2023992743343, 2510.50321270572, -2282.3281765091233, -2321.5335477446206, -0.04800000227987766, 0.0, 1.0240000486373901, 0.0, 0.0, 0.0, 0.0, 0.0, 1.706649063556221E9, 0.0, 2024-01-30 13:11:03.556
26.0, 1200.4162582275458, 2591.8385569420643, -2169.865644941572, -2183.291885782499, -0.04800000227987766, 0.0, 1.0240000486373901, 0.0, 0.0, 0.0, 0.0, 0.0, 1.706649063556221E9, 0.0, 2024-01-30 13:11:03.556
27.0, 1356.0634145834483, 2375.2011121087708, -2221.5735017289408, -2229.300135037396, -0.04800000227987766, 0.0, 1.0240000486373901, 0.0, 0.0, 0.0, 0.0, 0.0, 1.706649063573151E9, 0.0, 2024-01-30 13:11:03.573
27.0, 1567.2162961317226, 2478.594386283774, -2276.817433924414, -2320.899634702131, -0.04800000227987766, 0.0, 1.0240000486373901, 0.0, 0.0, 0.0, 0.0, 0.0, 1.706649063573151E9, 0.0, 2024-01-30 13:11:03.573
28.0, 1431.4317484404892, 2575.4241360365413, -2072.491739745252, -2089.9495927384123, -0.04800000227987766, 0.0, 1.0240000486373901, 0.0, 0.0, 0.0, 0.0, 0.0, 1.706649063582124E9, 0.0, 2024-01-30 13:11:03.582
28.0, 1466.7513636220247, 2506.0003731590696, -2110.347007096745, -2107.190531534143, -0.04800000227987766, 0.0, 1.0240000486373901, 0.0, 0.0, 0.0, 0.0, 0.0, 1.706649063582124E9, 0.0, 2024-01-30 13:11:03.582
29.0, 1627.6212902660482, 2417.4432821082883, -2272.114509730134, -2279.6242288411595, -0.04800000227987766, 0.0, 1.0240000486373901, 0.0, 0.0, 0.0, 0.0, 0.0, 1.706649063588119E9, 0.0, 2024-01-30 13:11:03.588
29.0, 1422.375580697786, 2579.758680085186, -2061.2888694279827, -2071.7269302043132, -0.04800000227987766, 0.0, 1.0240000486373901, 0.0, 0.0, 0.0, 0.0, 0.0, 1.706649063588119E9, 0.0, 2024-01-30 13:11:03.588
30.0, 1621.6486700368114, 2643.2771409326233, -1833.4148951778188, -1836.4217747421935, -0.04800000227987766, 0.0, 1.0240000486373901, 0.0, 0.0, 0.0, 0.0, 0.0, 1.706649063605134E9, 0.0, 2024-01-30 13:11:03.605
30.0, 1779.2069152700715, 2866.076070942916, -2000.3266302002594, -2010.6749333776534, -0.04800000227987766, 0.0, 1.0240000486373901, 0.0, 0.0, 0.0, 0.0, 0.0, 1.706649063605134E9, 0.0, 2024-01-30 13:11:03.605
31.0, 1739.870647536125, 3051.3320152480155, -2166.6044521802105, -2190.9063220922835, -0.04800000227987766, 0.0, 1.0240000486373901, 0.0, 0.0, 0.0, 0.0, 0.0, 1.706649063612224E9, 0.0, 2024-01-30 13:11:03.612
31.0, 1873.5926404017955, 3139.623573401943, -2050.334702457767, -2047.3240829934366, -0.04800000227987766, 0.0, 1.0240000486373901, 0.0, 0.0, 0.0, 0.0, 0.0, 1.706649063612224E9, 0.0, 2024-01-30 13:11:03.612
32.0, 2031.3565801326185, 2912.8397799888626, -2092.0832056631334, -2083.369238766376, -0.04800000227987766, 0.0, 1.0240000486373901, 0.0, 0.0, 0.0, 0.0, 0.0, 1.706649063620115E9, 0.0, 2024-01-30 13:11:03.620
32.0, 1788.5024366099387, 3019.655062623322, -2175.7578573217615, -2195.388592189178, -0.04800000227987766, 0.0, 1.0240000486373901, 0.0, 0.0, 0.0, 0.0, 0.0, 1.706649063620115E9, 0.0, 2024-01-30 13:11:03.620
33.0, 1702.3762805303559, 3112.69255382102, -1990.8347641127184, -1987.596010751091, -0.04800000227987766, 0.0, 1.0240000486373901, 0.0, 0.0, 0.0, 0.0, 0.0, 1.70664906363444E9, 0.0, 2024-01-30 13:11:03.634
33.0, 1815.5306935897097, 3037.0530772171915, -2040.1154258288443, -2038.129538952373, -0.04800000227987766, 0.0, 1.0240000486373901, 0.0, 0.0, 0.0, 0.0, 0.0, 1.70664906363444E9, 0.0, 2024-01-30 13:11:03.634
34.0, 1571.603198779747, 2956.241318974644, -2246.8552254294045, -2268.4344481737353, -0.04800000227987766, 0.0, 1.0240000486373901, 0.0, 0.0, 0.0, 0.0, 0.0, 1.706649063642121E9, 0.0, 2024-01-30 13:11:03.642
34.0, 1439.18830094859, 3077.642211436294, -2068.8659067382105, -2073.922251478303, -0.04800000227987766, 0.0, 1.0240000486373901, 0.0, 0.0, 0.0, 0.0, 0.0, 1.706649063642121E9, 0.0, 2024-01-30 13:11:03.642
35.0, 1205.8503328631632, 3126.8817342529073, -1862.6796123310924, -1851.6805665614083, -0.04800000227987766, 0.0, 1.0240000486373901, 0.0, 0.0, 0.0, 0.0, 0.0, 1.706649063649485E9, 0.0, 2024-01-30 13:11:03.649
35.0, 1394.0009597339667, 3332.869813962374, -2039.2926478385925, -2046.1030056579039, -0.04800000227987766, 0.0, 1.0240000486373901, 0.0, 0.0, 0.0, 0.0, 0.0, 1.706649063649485E9, 0.0, 2024-01-30 13:11:03.649
36.0, 1401.5088088950142, 3519.965789045673, -2234.2181034791283, -2249.1477841022424, -0.04800000227987766, 0.0, 1.0240000486373901, 0.0, 0.0, 0.0, 0.0, 0.0, 1.706649063679235E9, 0.0, 2024-01-30 13:11:03.679
36.0, 1645.015564959962, 3594.0569470678456, -2162.8645522245206, -2151.5625745584257, -0.04800000227987766, 0.0, 1.0240000486373901, 0.0, 0.0, 0.0, 0.0, 0.0, 1.706649063679235E9, 0.0, 2024-01-30 13:11:03.679
37.0, 1442.554210908711, 3827.6006096508354, -2245.5500003448687, -2242.5992192798294, -0.04800000227987766, 0.0, 1.0240000486373901, 0.0, 0.0, 0.0, 0.0, 0.0, 1.706649063685104E9, 0.0, 2024-01-30 13:11:03.685
37.0, 1254.8710715323687, 3927.0408095726743, -2346.7984418952838, -2365.165090577677, -0.04800000227987766, 0.0, 1.0240000486373901, 0.0, 0.0, 0.0, 0.0, 0.0, 1.706649063685104E9, 0.0, 2024-01-30 13:11:03.685
38.0, 1181.707408699207, 4011.6186470706016, -2164.7214125525206, -2153.438134386204, -0.04800000227987766, 0.0, 1.0240000486373901, 0.0, 0.0, 0.0, 0.0, 0.0, 1.706649063691124E9, 0.0, 2024-01-30 13:11:03.691
38.0, 1315.2031376175582, 3928.383433656767, -2225.1731554362923, -2221.39211658109, -0.04800000227987766, 0.0, 1.0240000486373901, 0.0, 0.0, 0.0, 0.0, 0.0, 1.706649063691124E9, 0.0, 2024-01-30 13:11:03.691
39.0, 1098.3973972862586, 3832.454999793321, -2439.336656448897, -2458.7953559183516, -0.04800000227987766, 0.0, 1.0240000486373901, 0.0, 0.0, 0.0, 0.0, 0.0, 1.706649063694124E9, 0.0, 2024-01-30 13:11:03.694
39.0, 899.4908181428909, 3972.585311233066, -2234.1059064804576, -2238.6199657269754, -0.04800000227987766, 0.0, 1.0240000486373901, 0.0, 0.0, 0.0, 0.0, 0.0, 1.706649063694124E9, 0.0, 2024-01-30 13:11:03.694
40.0, 1111.3636304326355, 4026.458570094779, -2000.139635202475, -2481.2908541518264, -0.04800000227987766, 0.0, 1.0240000486373901, 0.0, 0.0, 0.0, 0.0, 0.0, 1.706649063703832E9, 0.0, 2024-01-30 13:11:03.703
40.0, 1263.4242227310315, 4245.218408152927, -2173.2409046515822, -2658.6855287500657, -0.04800000227987766, 0.0, 1.0240000486373901, 0.0, 0.0, 0.0, 0.0, 0.0, 1.706649063703832E9, 0.0, 2024-01-30 13:11:03.703
41.0, 1266.975257738959, 4429.397261270788, -2361.5168181709014, -2861.023466102779, -0.04800000227987766, 0.0, 1.0240000486373901, 0.0, 0.0, 0.0, 0.0, 0.0, 1.706649063711217E9, 0.0, 2024-01-30 13:11:03.711
41.0, 1479.9457306656986, 4528.564448495861, -2299.4756178059615, -2747.4202650487423, -0.04800000227987766, 0.0, 1.0240000486373901, 0.0, 0.0, 0.0, 0.0, 0.0, 1.706649063711217E9, 0.0, 2024-01-30 13:11:03.711
42.0, 1704.0068769110367, 4284.109627792146, -2367.141627704259, -2807.2399648400024, -0.04800000227987766, 0.0, 1.0240000486373901, 0.0, 0.0, 0.0, 0.0, 0.0, 1.706649063723772E9, 0.0, 2024-01-30 13:11:03.723
42.0, 1489.4712558528408, 4374.753583018202, -2460.536279347725, -2927.546936564613, -0.04800000227987766, 0.0, 1.0240000486373901, 0.0, 0.0, 0.0, 0.0, 0.0, 1.706649063723772E9, 0.0, 2024-01-30 13:11:03.723
43.0, 1431.5888242386281, 4456.0403085551225, -2264.75999646727, -2722.712615991477, -0.04800000227987766, 0.0, 1.0240000486373901, 0.0, 0.0, 0.0, 0.0, 0.0, 1.706649063731129E9, 0.0, 2024-01-30 13:11:03.731
43.0, 1554.9120252775028, 4356.532790434081, -2312.2006274051964, -2776.8551476499997, -0.04800000227987766, 0.0, 1.0240000486373901, 0.0, 0.0, 0.0, 0.0, 0.0, 1.706649063731129E9, 0.0, 2024-01-30 13:11:03.731
44.0, 1791.2531330273487, 4276.584949081298, -2518.080250015948, -3004.097078807652, -0.04800000227987766, 0.0, 1.0240000486373901, 0.0, 0.0, 0.0, 0.0, 0.0, 1.706649063738148E9, 0.0, 2024-01-30 13:11:03.738
44.0, 1546.540259226691, 4423.6939138383605, -2290.701812509913, -2782.1302765375003, -0.04800000227987766, 0.0, 1.0240000486373901, 0.0, 0.0, 0.0, 0.0, 0.0, 1.706649063738148E9, 0.0, 2024-01-30 13:11:03.738
45.0, 1738.4195663533174, 4487.634983380791, -2049.1360645219684, -3010.570845630951, -0.04800000227987766, 0.0, 1.0240000486373901, 0.0, 0.0, 0.0, 0.0, 0.0, 1.706649063755112E9, 0.0, 2024-01-30 13:11:03.755
45.0, 1831.9694238449447, 4720.5279033714905, -2192.710823820904, -3172.572092011571, -0.04800000227987766, 0.0, 1.0240000486373901, 0.0, 0.0, 0.0, 0.0, 0.0, 1.706649063755112E9, 0.0, 2024-01-30 13:11:03.755
46.0, 1802.5102318939753, 4912.986894991249, -2384.487283698749, -3371.9742078990676, -0.04800000227987766, 0.0, 1.0240000486373901, 0.0, 0.0, 0.0, 0.0, 0.0, 1.706649063762219E9, 0.0, 2024-01-30 13:11:03.762
46.0, 2003.8309164587408, 4999.8872103616595, -2293.8807274722494, -3255.2743696817197, -0.04800000227987766, 0.0, 1.0240000486373901, 0.0, 0.0, 0.0, 0.0, 0.0, 1.706649063762219E9, 0.0, 2024-01-30 13:11:03.762
47.0, 2225.588284331374, 5232.275243858341, -2344.081404577475, -3321.253684700001, -0.04800000227987766, 0.0, 1.0240000486373901, 0.0, 0.0, 0.0, 0.0, 0.0, 1.706649063769147E9, 0.0, 2024-01-30 13:11:03.769
47.0, 2000.3041908005252, 5352.946855828632, -2441.795640669763, -3438.6809334587306, -0.04800000227987766, 0.0, 1.0240000486373901, 0.0, 0.0, 0.0, 0.0, 0.0, 1.706649063769147E9, 0.0, 2024-01-30 13:11:03.769
48.0, 1939.6953721186146, 5446.298498622607, -2270.3848060006276, -3241.06087990012, -0.04800000227987766, 0.0, 1.0240000486373901, 0.0, 0.0, 0.0, 0.0, 0.0, 1.706649063786134E9, 0.0, 2024-01-30 13:11:03.786
48.0, 2102.6502929879352, 5340.406971277203, -2338.712778191082, -3310.7165165748447, -0.04800000227987766, 0.0, 1.0240000486373901, 0.0, 0.0, 0.0, 0.0, 0.0, 1.706649063786134E9, 0.0, 2024-01-30 13:11:03.786
49.0, 1893.72826176323, 5254.224716698285, -2569.1411041109823, -3065.6333926785737, -0.04800000227987766, 0.0, 1.0240000486373901, 0.0, 0.0, 0.0, 0.0, 0.0, 1.706649063792102E9, 0.0, 2024-01-30 13:11:03.792
49.0, 1724.939096963033, 5391.639860770199, -2388.889145946596, -2859.127336825244, -0.04800000227987766, 0.0, 1.0240000486373901, 0.0, 0.0, 0.0, 0.0, 0.0, 1.706649063792102E9, 0.0, 2024-01-30 13:11:03.792
50.0, 1968.4739022776484, 5437.322738728952, -2154.9266145685688, -2635.258795427624, -0.04800000227987766, 0.0, 1.0240000486373901, 0.0, 0.0, 0.0, 0.0, 0.0, 1.706649063800101E9, 0.0, 2024-01-30 13:11:03.800
50.0, 2076.313917499967, 5662.361868812703, -2304.6647289944813, -2799.4441433823667, -0.04800000227987766, 0.0, 1.0240000486373901, 0.0, 0.0, 0.0, 0.0, 0.0, 1.706649063800101E9, 0.0, 2024-01-30 13:11:03.800
51.0, 2021.8048756457865, 5857.569686899893, -2484.249115016777, -2994.653831419535, -0.04800000227987766, 0.0, 1.0240000486373901, 0.0, 0.0, 0.0, 0.0, 0.0, 1.706649063815213E9, 0.0, 2024-01-30 13:11:03.815
51.0, 2173.4783882987686, 5951.747847584076, -2379.0008504637517, -2855.522073267959, -0.04800000227987766, 0.0, 1.0240000486373901, 0.0, 0.0, 0.0, 0.0, 0.0, 1.706649063815213E9, 0.0, 2024-01-30 13:11:03.815
52.0, 2330.3858909397386, 6195.490217346232, -2399.5889997198246, -2886.544543400407, -0.04800000227987766, 0.0, 1.0240000486373901, 0.0, 0.0, 0.0, 0.0, 0.0, 1.706649063821074E9, 0.0, 2024-01-30 13:11:03.821
52.0, 2504.7942554233596, 6331.177527638618, -2462.02475953009, -2971.8759707394056, -0.04800000227987766, 0.0, 1.0240000486373901, 0.0, 0.0, 0.0, 0.0, 0.0, 1.706649063821074E9, 0.0, 2024-01-30 13:11:03.821
53.0, 2380.3303848979995, 6440.4274851442315, -2263.2565566850826, -2744.5835509323515, -0.04800000227987766, 0.0, 1.0240000486373901, 0.0, 0.0, 0.0, 0.0, 0.0, 1.706649063829088E9, 0.0, 2024-01-30 13:11:03.829
53.0, 2509.2222969708964, 6339.446446440648, -2319.598149517551, -2801.0485604633577, -0.04800000227987766, 0.0, 1.0240000486373901, 0.0, 0.0, 0.0, 0.0, 0.0, 1.706649063829088E9, 0.0, 2024-01-30 13:11:03.829
54.0, 2705.0976872001775, 6267.651586991269, -2512.762112278957, -3012.5118537079543, -0.04800000227987766, 0.0, 1.0240000486373901, 0.0, 0.0, 0.0, 0.0, 0.0, 1.706649063844097E9, 0.0, 2024-01-30 13:11:03.844
54.0, 2939.9316152678803, 6411.346023088787, -2288.312016438227, -2779.792839065194, -0.04800000227987766, 0.0, 1.0240000486373901, 0.0, 0.0, 0.0, 0.0, 0.0, 1.706649063844097E9, 0.0, 2024-01-30 13:11:03.844
55.0, 3134.182018966414, 6467.908270018641, -2043.3541791904718, -3011.5058206198737, -0.04800000227987766, 0.0, 1.0240000486373901, 0.0, 0.0, 0.0, 0.0, 0.0, 1.706649063851112E9, 0.0, 2024-01-30 13:11:03.851
55.0, 3213.71099152416, 6695.172640576027, -2183.8360412260517, -3157.6573709882796, -0.04800000227987766, 0.0, 1.0240000486373901, 0.0, 0.0, 0.0, 0.0, 0.0, 1.706649063851112E9, 0.0, 2024-01-30 13:11:03.851
56.0, 3181.07662451081, 6888.218796488829, -2372.979611535091, -3355.9487365889363, -0.04800000227987766, 0.0, 1.0240000486373901, 0.0, 0.0, 0.0, 0.0, 0.0, 1.706649063857206E9, 0.0, 2024-01-30 13:11:03.857
56.0, 3390.770945076365, 6961.954664015211, -2283.524944494944, -3235.3182635181583, -0.04800000227987766, 0.0, 1.0240000486373901, 0.0, 0.0, 0.0, 0.0, 0.0, 1.706649063857206E9, 0.0, 2024-01-30 13:11:03.857
57.0, 3627.7310062688775, 7188.874963776674, -2342.768699693028, -3297.808251877781, -0.04800000227987766, 0.0, 1.0240000486373901, 0.0, 0.0, 0.0, 0.0, 0.0, 1.706649063873069E9, 0.0, 2024-01-30 13:11:03.873
57.0, 3851.88378006313, 7313.727783897426, -2429.143559119664, -3400.6311913095415, -0.04800000227987766, 0.0, 1.0240000486373901, 0.0, 0.0, 0.0, 0.0, 0.0, 1.706649063873069E9, 0.0, 2024-01-30 13:11:03.873
58.0, 3810.165196057409, 7399.341573683079, -2259.079088434577, -3196.9786791224033, -0.04800000227987766, 0.0, 1.0240000486373901, 0.0, 0.0, 0.0, 0.0, 0.0, 1.706649063881088E9, 0.0, 2024-01-30 13:11:03.881
58.0, 4022.2437028447166, 7258.407183752861, -2334.239857844077, -3265.751699407585, -0.04800000227987766, 0.0, 1.0240000486373901, 0.0, 0.0, 0.0, 0.0, 0.0, 1.706649063881088E9, 0.0, 2024-01-30 13:11:03.881
59.0, 4225.456776787061, 7183.7812200370245, -2533.6793727311306, -3485.5624493532814, -0.04800000227987766, 0.0, 1.0240000486373901, 0.0, 0.0, 0.0, 0.0, 0.0, 1.706649063888781E9, 0.0, 2024-01-30 13:11:03.888
59.0, 3981.652698675636, 7335.452862740029, -2312.23241655482, -3250.9585251328535, -0.04800000227987766, 0.0, 1.0240000486373901, 0.0, 0.0, 0.0, 0.0, 0.0, 1.706649063888781E9, 0.0, 2024-01-30 13:11:03.888
60.0, 4213.040308934171, 7380.855248202104, -2081.187007142231, -3007.7434812644497, -0.04800000227987766, 0.0, 1.0240000486373901, 0.0, 0.0, 0.0, 0.0, 0.0, 1.706649063903773E9, 0.0, 2024-01-30 13:11:03.903
60.0, 4325.439262202475, 7599.970376756042, -2233.112963042222, -3182.7446198910475, -0.04800000227987766, 0.0, 1.0240000486373901, 0.0, 0.0, 0.0, 0.0, 0.0, 1.706649063903773E9, 0.0, 2024-01-30 13:11:03.903
61.0, 4295.7668959540315, 7809.861042069271, -2423.812331732828, -3387.984719609376, -0.04800000227987766, 0.0, 1.0240000486373901, 0.0, 0.0, 0.0, 0.0, 0.0, 1.706649063911465E9, 0.0, 2024-01-30 13:11:03.911
61.0, 4457.942047682591, 7900.2993027977645, -2322.625598531682, -3255.4314454798587, -0.04800000227987766, 0.0, 1.0240000486373901, 0.0, 0.0, 0.0, 0.0, 0.0, 1.706649063911465E9, 0.0, 2024-01-30 13:11:03.911
62.0, 4650.5169762009755, 8126.617478666361, -2351.243312992621, -3292.587351539638, -0.04800000227987766, 0.0, 1.0240000486373901, 0.0, 0.0, 0.0, 0.0, 0.0, 1.706649063916235E9, 0.0, 2024-01-30 13:11:03.916
62.0, 4834.682739668991, 8268.221310688648, -2422.0489689037204, -3383.8427804084495, -0.04800000227987766, 0.0, 1.0240000486373901, 0.0, 0.0, 0.0, 0.0, 0.0, 1.706649063916235E9, 0.0, 2024-01-30 13:11:03.916
63.0, 4730.272212706041, 8362.478009271901, -2231.6132631599903, -3169.363257849589, -0.04800000227987766, 0.0, 1.0240000486373901, 0.0, 0.0, 0.0, 0.0, 0.0, 1.706649063932142E9, 0.0, 2024-01-30 13:11:03.932
63.0, 4878.454528750386, 8253.852615058888, -2275.6094462387264, -3224.395885697566, -0.04800000227987766, 0.0, 1.0240000486373901, 0.0, 0.0, 0.0, 0.0, 0.0, 1.706649063932142E9, 0.0, 2024-01-30 13:11:03.932
64.0, 4988.689949894324, 8212.39208415011, -2437.4966256706975, -3415.0316760889255, -0.04800000227987766, 0.0, 1.0240000486373901, 0.0, 0.0, 0.0, 0.0, 0.0, 1.706649063939119E9, 0.0, 2024-01-30 13:11:03.939
64.0, 5166.011696443427, 8389.633422850166, -2195.4802197380923, -3170.075708791148, -0.04800000227987766, 0.0, 1.0240000486373901, 0.0, 0.0, 0.0, 0.0, 0.0, 1.706649063939119E9, 0.0, 2024-01-30 13:11:03.939
65.0, 5373.086217090022, 8450.399317330215, -1958.058280901052, -3408.5429496658035, -0.04800000227987766, 0.0, 1.0240000486373901, 0.0, 0.0, 0.0, 0.0, 0.0, 1.70664906394744E9, 0.0, 2024-01-30 13:11:03.947
65.0, 5420.695143525954, 8670.93186796736, -2079.1076227668673, -3545.4793865433894, -0.04800000227987766, 0.0, 1.0240000486373901, 0.0, 0.0, 0.0, 0.0, 0.0, 1.70664906394744E9, 0.0, 2024-01-30 13:11:03.947
66.0, 5338.2827081023715, 8900.812298543751, -2244.7795809539966, -3729.734907610342, -0.04800000227987766, 0.0, 1.0240000486373901, 0.0, 0.0, 0.0, 0.0, 0.0, 1.70664906396612E9, 0.0, 2024-01-30 13:11:03.966
66.0, 5521.932365376502, 8993.674014443532, -2156.4132248009555, -3612.5713217984885, -0.04800000227987766, 0.0, 1.0240000486373901, 0.0, 0.0, 0.0, 0.0, 0.0, 1.70664906396612E9, 0.0, 2024-01-30 13:11:03.966
67.0, 5756.83174169343, 9200.0248644487, -2199.609069289174, -3652.6630493234843, -0.04800000227987766, 0.0, 1.0240000486373901, 0.0, 0.0, 0.0, 0.0, 0.0, 1.706649063973119E9, 0.0, 2024-01-30 13:11:03.973
67.0, 5925.125369749498, 9358.525564470794, -2271.899465482682, -3755.497208455112, -0.04800000227987766, 0.0, 1.0240000486373901, 0.0, 0.0, 0.0, 0.0, 0.0, 1.706649063973119E9, 0.0, 2024-01-30 13:11:03.973
68.0, 5834.488894323353, 9466.945264186244, -2082.282797829248, -3543.8637497625314, -0.04800000227987766, 0.0, 1.0240000486373901, 0.0, 0.0, 0.0, 0.0, 0.0, 1.706649063979568E9, 0.0, 2024-01-30 13:11:03.979
68.0, 6066.164476878475, 9318.38895814633, -2161.254525293596, -3612.057085554581, -0.04800000227987766, 0.0, 1.0240000486373901, 0.0, 0.0, 0.0, 0.0, 0.0, 1.706649063979568E9, 0.0, 2024-01-30 13:11:03.979
69.0, 6261.710755911656, 9258.531859355513, -2355.5554176415317, -3827.1892206557095, -0.04800000227987766, 0.0, 1.0240000486373901, 0.0, 0.0, 0.0, 0.0, 0.0, 1.706649063992108E9, 0.0, 2024-01-30 13:11:03.992
69.0, 6034.508093703538, 9411.800439339597, -2144.7260374394245, -3607.8665276542306, -0.04800000227987766, 0.0, 1.0240000486373901, 0.0, 0.0, 0.0, 0.0, 0.0, 1.706649063992108E9, 0.0, 2024-01-30 13:11:03.992
70.0, 5802.75958309928, 9450.504663981032, -1922.8994814176112, -3368.649436838459, -0.04800000227987766, 0.0, 1.0240000486373901, 0.0, 0.0, 0.0, 0.0, 0.0, 1.706649064001106E9, 0.0, 2024-01-30 13:11:04.001
70.0, 5877.153673017863, 9669.900285031646, -2053.1153180748224, -3506.924757900182, -0.04800000227987766, 0.0, 1.0240000486373901, 0.0, 0.0, 0.0, 0.0, 0.0, 1.706649064001106E9, 0.0, 2024-01-30 13:11:04.001
71.0, 5803.055035195779, 9879.345902250148, -2225.3545405841433, -3696.363780305721, -0.04800000227987766, 0.0, 1.0240000486373901, 0.0, 0.0, 0.0, 0.0, 0.0, 1.706649064006239E9, 0.0, 2024-01-30 13:11:04.006
71.0, 5980.227185746655, 9979.96417065803, -2125.409454168286, -3568.9117297157645, -0.04800000227987766, 0.0, 1.0240000486373901, 0.0, 0.0, 0.0, 0.0, 0.0, 1.706649064006239E9, 0.0, 2024-01-30 13:11:04.006
72.0, 6179.829386281781, 10188.00545544317, -2162.5990193276666, -3597.8323760731146, -0.04800000227987766, 0.0, 1.0240000486373901, 0.0, 0.0, 0.0, 0.0, 0.0, 1.70664906402411E9, 0.0, 2024-01-30 13:11:04.024
72.0, 6287.92932455102, 10343.308541003149, -2205.628438267857, -3651.438232087996, -0.04800000227987766, 0.0, 1.0240000486373901, 0.0, 0.0, 0.0, 0.0, 0.0, 1.70664906402411E9, 0.0, 2024-01-30 13:11:04.024
73.0, 6203.463684051763, 10471.628248382825, -2025.4363185027614, -3469.9446271383204, -0.04800000227987766, 0.0, 1.0240000486373901, 0.0, 0.0, 0.0, 0.0, 0.0, 1.706649064030572E9, 0.0, 2024-01-30 13:11:04.030
73.0, 6025.999821304344, 10320.670926571358, -2133.1828362261876, -3593.6268585729413, -0.04800000227987766, 0.0, 1.0240000486373901, 0.0, 0.0, 0.0, 0.0, 0.0, 1.706649064030572E9, 0.0, 2024-01-30 13:11:04.030
74.0, 6237.444415049162, 10254.06330836052, -2336.49314756738, -3830.715946313925, -0.04800000227987766, 0.0, 1.0240000486373901, 0.0, 0.0, 0.0, 0.0, 0.0, 1.706649064036717E9, 0.0, 2024-01-30 13:11:04.036
74.0, 6014.157428094652, 10410.252750209998, -2135.144413752947, -3610.779909719713, -0.04800000227987766, 0.0, 1.0240000486373901, 0.0, 0.0, 0.0, 0.0, 0.0, 1.706649064036717E9, 0.0, 2024-01-30 13:11:04.036
75.0, 5780.550187212415, 10449.484300745185, -1909.237626879476, -3854.3969928333536, -0.04800000227987766, 0.0, 1.0240000486373901, 0.0, 0.0, 0.0, 0.0, 0.0, 1.706649064054142E9, 0.0, 2024-01-30 13:11:04.054
75.0, 5848.986616501585, 10664.945547042415, -2040.1191657288, -3994.4300668742508, -0.04800000227987766, 0.0, 1.0240000486373901, 0.0, 0.0, 0.0, 0.0, 0.0, 1.706649064054142E9, 0.0, 2024-01-30 13:11:04.054
76.0, 5790.154250298627, 10879.713041897863, -2219.325821855571, -4186.80117084505, -0.04800000227987766, 0.0, 1.0240000486373901, 0.0, 0.0, 0.0, 0.0, 0.0, 1.706649064059758E9, 0.0, 2024-01-30 13:11:04.059
76.0, 6024.333695874084, 10982.021745085716, -2141.1544329817407, -4087.8284584176727, -0.04800000227987766, 0.0, 1.0240000486373901, 0.0, 0.0, 0.0, 0.0, 0.0, 1.706649064059758E9, 0.0, 2024-01-30 13:11:04.059
77.0, 6267.479551593307, 11178.992926002014, -2188.909215515945, -4139.955184000079, -0.04800000227987766, 0.0, 1.0240000486373901, 0.0, 0.0, 0.0, 0.0, 0.0, 1.706649064067098E9, 0.0, 2024-01-30 13:11:04.067
77.0, 6453.459166539833, 11323.005253595766, -2274.794148048386, -4250.800208836794, -0.04800000227987766, 0.0, 1.0240000486373901, 0.0, 0.0, 0.0, 0.0, 0.0, 1.706649064067098E9, 0.0, 2024-01-30 13:11:04.067
78.0, 6411.216996540315, 11439.009470421355, -2113.4511240599677, -4064.5157920438796, -0.04800000227987766, 0.0, 1.0240000486373901, 0.0, 0.0, 0.0, 0.0, 0.0, 1.706649064086132E9, 0.0, 2024-01-30 13:11:04.086
78.0, 6171.865269326139, 11278.833295219112, -2184.5728015173227, -4147.433113961481, -0.04800000227987766, 0.0, 1.0240000486373901, 0.0, 0.0, 0.0, 0.0, 0.0, 1.706649064086132E9, 0.0, 2024-01-30 13:11:04.086
79.0, 6367.856596454047, 11237.024953614455, -2397.2740016472526, -4375.733436806593, -0.04800000227987766, 0.0, 1.0240000486373901, 0.0, 0.0, 0.0, 0.0, 0.0, 1.706649064090474E9, 0.0, 2024-01-30 13:11:04.090
79.0, 6166.638759138063, 11369.151879149023, -2195.469000038225, -4165.154629901517, -0.04800000227987766, 0.0, 1.0240000486373901, 0.0, 0.0, 0.0, 0.0, 0.0, 1.706649064090474E9, 0.0, 2024-01-30 13:11:04.090
80.0, 5985.2367817373015, 11422.84936271282, -1987.233240455389, -3966.4406556058675, -0.04800000227987766, 0.0, 1.0240000486373901, 0.0, 0.0, 0.0, 0.0, 0.0, 1.706649064098455E9, 0.0, 2024-01-30 13:11:04.098
80.0, 6054.327693518717, 11635.22893144656, -2129.682289867662, -4099.001409535296, -0.04800000227987766, 0.0, 1.0240000486373901, 0.0, 0.0, 0.0, 0.0, 0.0, 1.706649064098455E9, 0.0, 2024-01-30 13:11:04.098
81.0, 5912.996874193195, 11843.833071175031, -2275.1363488943316, -4233.680816789623, -0.04800000227987766, 0.0, 1.0240000486373901, 0.0, 0.0, 0.0, 0.0, 0.0, 1.706649064113485E9, 0.0, 2024-01-30 13:11:04.113
81.0, 6136.233372498304, 11939.353855943307, -2193.5728707606904, -4136.626673039515, -0.04800000227987766, 0.0, 1.0240000486373901, 0.0, 0.0, 0.0, 0.0, 0.0, 1.706649064113485E9, 0.0, 2024-01-30 13:11:04.113
82.0, 5901.290987331886, 12145.663567048963, -2247.4124705228023, -4215.134652909357, -0.06400000303983688, 0.0, 1.0240000486373901, 0.0, 0.0, 0.0, 0.0, 0.0, 1.706649064119107E9, 0.0, 2024-01-30 13:11:04.119
82.0, 6117.518913120031, 12294.126375589985, -2342.4264988470823, -4337.573367608711, -0.06400000303983688, 0.0, 1.0240000486373901, 0.0, 0.0, 0.0, 0.0, 0.0, 1.706649064119107E9, 0.0, 2024-01-30 13:11:04.119
83.0, 6053.581583477557, 12388.345675173681, -2164.1080689597875, -4136.254552993923, -0.06400000303983688, 0.0, 1.0240000486373901, 0.0, 0.0, 0.0, 0.0, 0.0, 1.706649064127114E9, 0.0, 2024-01-30 13:11:04.127
83.0, 6265.918143361807, 12251.981442989316, -2234.1563951298594, -4207.839978045784, -0.06400000303983688, 0.0, 1.0240000486373901, 0.0, 0.0, 0.0, 0.0, 0.0, 1.706649064127114E9, 0.0, 2024-01-30 13:11:04.127
84.0, 6436.70628468832, 12199.278772813734, -2436.7486456795596, -4428.297730683815, -0.06400000303983688, 0.0, 1.0240000486373901, 0.0, 0.0, 0.0, 0.0, 0.0, 1.706649064145109E9, 0.0, 2024-01-30 13:11:04.145
84.0, 6211.324953758623, 12351.47774141049, -2226.540088870097, -4203.71299844468, -0.06400000303983688, 0.0, 1.0240000486373901, 0.0, 0.0, 0.0, 0.0, 0.0, 1.706649064145109E9, 0.0, 2024-01-30 13:11:04.145
85.0, 5982.048517025076, 12385.166760211345, -1997.4169880347326, -3970.1057575624436, -0.06400000303983688, 0.0, 1.0240000486373901, 0.0, 0.0, 0.0, 0.0, 0.0, 1.706649064152108E9, 0.0, 2024-01-30 13:11:04.152
85.0, 6026.30649310071, 12602.2885220889, -2122.288507655263, -4102.266342196614, -0.06400000303983688, 0.0, 1.0240000486373901, 0.0, 0.0, 0.0, 0.0, 0.0, 1.706649064152108E9, 0.0, 2024-01-30 13:11:04.152
86.0, 5983.533257307485, 12822.063742985018, -2306.5814277217723, -4298.010835927445, -0.06400000303983688, 0.0, 1.0240000486373901, 0.0, 0.0, 0.0, 0.0, 0.0, 1.706649064158232E9, 0.0, 2024-01-30 13:11:04.158
86.0, 6211.485769456718, 12902.699725929648, -2226.057641775813, -4189.89032820845, -0.06400000303983688, 0.0, 1.0240000486373901, 0.0, 0.0, 0.0, 0.0, 0.0, 1.706649064158232E9, 0.0, 2024-01-30 13:11:04.158
87.0, 6434.417465915438, 13106.593461663928, -2261.35855745757, -4231.175083819311, -0.06400000303983688, 0.0, 1.0240000486373901, 0.0, 0.0, 0.0, 0.0, 0.0, 1.706649064175114E9, 0.0, 2024-01-30 13:11:04.175
87.0, 6614.686253629625, 13267.263303660322, -2350.0596346566454, -4333.650212555192, -0.06400000303983688, 0.0, 1.0240000486373901, 0.0, 0.0, 0.0, 0.0, 0.0, 1.706649064175114E9, 0.0, 2024-01-30 13:11:04.175
88.0, 6553.437912055291, 13359.249882970471, -2182.9347253367305, -4128.72613438312, -0.06400000303983688, 0.0, 1.0240000486373901, 0.0, 0.0, 0.0, 0.0, 0.0, 1.706649064182134E9, 0.0, 2024-01-30 13:11:04.182
88.0, 6312.949255254585, 13212.847759305034, -2251.853601720184, -4201.867357816547, -0.06400000303983688, 0.0, 1.0240000486373901, 0.0, 0.0, 0.0, 0.0, 0.0, 1.706649064182134E9, 0.0, 2024-01-30 13:11:04.182
89.0, 6479.107400435954, 13162.95001409622, -2451.9438591995277, -4413.644802657422, -0.06400000303983688, 0.0, 1.0240000486373901, 0.0, 0.0, 0.0, 0.0, 0.0, 1.706649064187109E9, 0.0, 2024-01-30 13:11:04.187
89.0, 6249.054934461601, 13311.375423637684, -2241.387491694186, -4188.327050026972, -0.06400000303983688, 0.0, 1.0240000486373901, 0.0, 0.0, 0.0, 0.0, 0.0, 1.706649064187109E9, 0.0, 2024-01-30 13:11:04.187
90.0, 6035.527216441464, 13337.438786428887, -2018.5997813837603, -3958.3811712013558, -0.06400000303983688, 0.0, 1.0240000486373901, 0.0, 0.0, 0.0, 0.0, 0.0, 1.706649064204105E9, 0.0, 2024-01-30 13:11:04.204
90.0, 6080.978220602963, 13565.888705272228, -2144.6194502906874, -4093.3766000019386, -0.06400000303983688, 0.0, 1.0240000486373901, 0.0, 0.0, 0.0, 0.0, 0.0, 1.706649064204105E9, 0.0, 2024-01-30 13:11:04.204
91.0, 6050.105346468743, 13773.673806910403, -2333.2805735054426, -4295.684618155006, -0.06400000303983688, 0.0, 1.0240000486373901, 0.0, 0.0, 0.0, 0.0, 0.0, 1.706649064209107E9, 0.0, 2024-01-30 13:11:04.209
91.0, 6281.689301474951, 13859.164179997519, -2259.4325089803897, -4189.606095811818, -0.06400000303983688, 0.0, 1.0240000486373901, 0.0, 0.0, 0.0, 0.0, 0.0, 1.706649064209107E9, 0.0, 2024-01-30 13:11:04.209
92.0, 6492.952510071918, 14065.945118497591, -2288.1250214404427, -4235.169296971988, -0.06400000303983688, 0.0, 1.0240000486373901, 0.0, 0.0, 0.0, 0.0, 0.0, 1.706649064218102E9, 0.0, 2024-01-30 13:11:04.218
92.0, 6665.449785678182, 14234.438831201289, -2366.2160024652258, -4337.378892811015, -0.06400000303983688, 0.0, 1.0240000486373901, 0.0, 0.0, 0.0, 0.0, 0.0, 1.706649064218102E9, 0.0, 2024-01-30 13:11:04.218
93.0, 6581.055203278083, 14330.083032668103, -2186.281935797073, -4133.707681124099, -0.06400000303983688, 0.0, 1.0240000486373901, 0.0, 0.0, 0.0, 0.0, 0.0, 1.706649064235118E9, 0.0, 2024-01-30 13:11:04.235
93.0, 6801.974833560642, 14189.948981328402, -2247.7621511686593, -4198.11623816099, -0.06400000303983688, 0.0, 1.0240000486373901, 0.0, 0.0, 0.0, 0.0, 0.0, 1.706649064235118E9, 0.0, 2024-01-30 13:11:04.235
94.0, 6936.781397413462, 14146.416545844171, -2428.5096460771747, -4404.650343263987, -0.06400000303983688, 0.0, 1.0240000486373901, 0.0, 0.0, 0.0, 0.0, 0.0, 1.706649064239755E9, 0.0, 2024-01-30 13:11:04.239
94.0, 6698.46749243699, 14311.260116191115, -2208.764344380703, -4178.5621712426655, -0.06400000303983688, 0.0, 1.0240000486373901, 0.0, 0.0, 0.0, 0.0, 0.0, 1.706649064239755E9, 0.0, 2024-01-30 13:11:04.239
95.0, 6471.887523571495, 14348.834891045932, -1981.8889234187081, -3947.5317214298993, -0.06400000303983688, 0.0, 1.0240000486373901, 0.0, 0.0, 0.0, 0.0, 0.0, 1.706649064248112E9, 0.0, 2024-01-30 13:11:04.248
95.0, 6473.551779051777, 14589.353467046283, -2092.9115935033187, -4077.3137296922505, -0.06400000303983688, 0.0, 1.0240000486373901, 0.0, 0.0, 0.0, 0.0, 0.0, 1.706649064248112E9, 0.0, 2024-01-30 13:11:04.248
96.0, 6401.60732360417, 14810.190819529817, -2271.3740095389076, -4267.646588187199, -0.06400000303983688, 0.0, 1.0240000486373901, 0.0, 0.0, 0.0, 0.0, 0.0, 1.706649064263219E9, 0.0, 2024-01-30 13:11:04.263
96.0, 6614.488038931973, 14906.033235694282, -2184.664429066237, -4156.003094709944, -0.06400000303983688, 0.0, 1.0240000486373901, 0.0, 0.0, 0.0, 0.0, 0.0, 1.706649064263219E9, 0.0, 2024-01-30 13:11:04.263
97.0, 6809.1610513255, 15117.006602044683, -2206.7298388048075, -4195.574976141099, -0.06400000303983688, 0.0, 1.0240000486373901, 0.0, 0.0, 0.0, 0.0, 0.0, 1.706649064268128E9, 0.0, 2024-01-30 13:11:04.268
97.0, 6955.587484340649, 15288.600691811647, -2281.8775185644627, -4286.871543909423, -0.06400000303983688, 0.0, 1.0240000486373901, 0.0, 0.0, 0.0, 0.0, 0.0, 1.706649064268128E9, 0.0, 2024-01-30 13:11:04.268
98.0, 6851.722982771229, 15400.390041387174, -2087.963705861941, -4070.361255674623, -0.06400000303983688, 0.0, 1.0240000486373901, 0.0, 0.0, 0.0, 0.0, 0.0, 1.706649064278115E9, 0.0, 2024-01-30 13:11:04.278
98.0, 6663.757480948232, 15234.031811558176, -2191.8095079315826, -4163.23419127427, -0.06400000303983688, 0.0, 1.0240000486373901, 0.0, 0.0, 0.0, 0.0, 0.0, 1.706649064278115E9, 0.0, 2024-01-30 13:11:04.278
99.0, 6851.300374076236, 15166.623854756821, -2402.1358715896495, -4378.388765775133, -0.06400000303983688, 0.0, 1.0240000486373901, 0.0, 0.0, 0.0, 0.0, 0.0, 1.706649064291359E9, 0.0, 2024-01-30 13:11:04.291
99.0, 6643.328277440276, 15318.602169256192, -2195.674694535788, -4161.762540641706, -0.06400000303983688, 0.0, 1.0240000486373901, 0.0, 0.0, 0.0, 0.0, 0.0, 1.706649064291359E9, 0.0, 2024-01-30 13:11:04.291
100.0, 6471.05913573131, 15343.053635166492, -1994.855156565085, -3947.774814927019, -0.06400000303983688, 0.0, 1.0240000486373901, 0.0, 0.0, 0.0, 0.0, 0.0, 1.706649064295456E9, 0.0, 2024-01-30 13:11:04.295
100.0, 6497.500228418037, 15568.586432044394, -2111.59239378199, -4079.538970165886, -0.06400000303983688, 0.0, 1.0240000486373901, 0.0, 0.0, 0.0, 0.0, 0.0, 1.706649064295456E9, 0.0, 2024-01-30 13:11:04.295
0.0, -405.1583217997104, 89.60426303837448, 144.24607134098187, 127.10984974401072, -0.06400000303983688, 0.0, 1.0240000486373901, 0.0, 0.0, 0.0, 0.0, 0.0, 1.706649064309099E9, 0.0, 2024-01-30 13:11:04.309
1.0, -641.1011302042753, 177.54427059646696, 216.54207738442346, 229.2801766335033, -0.06400000303983688, 0.0, 1.0240000486373901, 0.0, 0.0, 0.0, 0.0, 0.0, 1.706649064314482E9, 0.0, 2024-01-30 13:11:04.314
1.0, -434.4192990530282, 371.706786646042, 186.15913014439866, 187.52793352818117, -0.06400000303983688, 0.0, 1.0240000486373901, 0.0, 0.0, 0.0, 0.0, 0.0, 1.706649064314482E9, 0.0, 2024-01-30 13:11:04.314
2.0, -259.08343938039616, 536.4531195941381, 110.60380128957331, 89.73141963686794, -0.06400000303983688, 0.0, 1.0240000486373901, 0.0, 0.0, 0.0, 0.0, 0.0, 1.70664906432211E9, 0.0, 2024-01-30 13:11:04.322
2.0, -317.73629038548097, 638.342953986954, 273.7531969565898, 290.89315845351666, -0.06400000303983688, 0.0, 1.0240000486373901, 0.0, 0.0, 0.0, 0.0, 0.0, 1.70664906432211E9, 0.0, 2024-01-30 13:11:04.322
3.0, -549.3726039910689, 474.47923742840067, 191.80450912751257, 207.62802584003657, -0.06400000303983688, 0.0, 1.0240000486373901, 0.0, 0.0, 0.0, 0.0, 0.0, 1.70664906433779E9, 0.0, 2024-01-30 13:11:04.337
3.0, -417.56170000275597, 427.7005687826313, 3.857706804294139, 1.7558830291964114, -0.06400000303983688, 0.0, 1.0240000486373901, 0.0, 0.0, 0.0, 0.0, 0.0, 1.70664906433779E9, 0.0, 2024-01-30 13:11:04.337
4.0, -638.9712571795098, 579.12537808856, 218.22503236448392, 226.77818356314674, -0.06400000303983688, 0.0, 1.0240000486373901, 0.0, 0.0, 0.0, 0.0, 0.0, 1.706649064344448E9, 0.0, 2024-01-30 13:11:04.344
4.0, -828.1372668882832, 608.7977443370037, 435.49265034031123, 442.6545587554574, -0.06400000303983688, 0.0, 1.0240000486373901, 0.0, 0.0, 0.0, 0.0, 0.0, 1.706649064344448E9, 0.0, 2024-01-30 13:11:04.344
5.0, -826.0092638134956, 835.086001005955, 321.3284642929211, 318.43004182726145, -0.06400000303983688, 0.0, 1.0240000486373901, 0.0, 0.0, 0.0, 0.0, 0.0, 1.706649064352459E9, 0.0, 2024-01-30 13:11:04.352
5.0, -875.4283018279821, 1046.109856005758, 136.85602902853861, 122.07968430360779, -0.06400000303983688, 0.0, 1.0240000486373901, 0.0, 0.0, 0.0, 0.0, 0.0, 1.706649064352459E9, 0.0, 2024-01-30 13:11:04.352
6.0, -1114.2059543989599, 1129.9733726121485, 206.27231210609898, 224.1602535941638, -0.06400000303983688, 0.0, 1.0240000486373901, 0.0, 0.0, 0.0, 0.0, 0.0, 1.70664906436875E9, 0.0, 2024-01-30 13:11:04.368
6.0, -902.1050082119182, 1327.9356270167045, 179.8424391192384, 179.68910322105512, -0.06400000303983688, 0.0, 1.0240000486373901, 0.0, 0.0, 0.0, 0.0, 0.0, 1.70664906436875E9, 0.0, 2024-01-30 13:11:04.368
7.0, -747.2451007966883, 1496.6724332175218, 99.59353582002223, 79.86556355375797, -0.06400000303983688, 0.0, 1.0240000486373901, 0.0, 0.0, 0.0, 0.0, 0.0, 1.706649064372725E9, 0.0, 2024-01-30 13:11:04.372
7.0, -796.8735732086934, 1587.5520021407865, 266.2322581456974, 286.43893760629, -0.06400000303983688, 0.0, 1.0240000486373901, 0.0, 0.0, 0.0, 0.0, 0.0, 1.706649064372725E9, 0.0, 2024-01-30 13:11:04.372
8.0, -1035.4548810319975, 1442.58973995829, 195.9445783784613, 206.14702545758337, -0.06400000303983688, 0.0, 1.0240000486373901, 0.0, 0.0, 0.0, 0.0, 0.0, 1.706649064382119E9, 0.0, 2024-01-30 13:11:04.382
8.0, -900.659536879044, 1394.7190205254592, -4.22421699995175, 7.0590611663647, -0.06400000303983688, 0.0, 1.0240000486373901, 0.0, 0.0, 0.0, 0.0, 0.0, 1.706649064382119E9, 0.0, 2024-01-30 13:11:04.382
9.0, -1109.271156407427, 1539.9019368053414, 200.61384347314015, 228.11706774728373, -0.06400000303983688, 0.0, 1.0240000486373901, 0.0, 0.0, 0.0, 0.0, 0.0, 1.706649064400127E9, 0.0, 2024-01-30 13:11:04.400
9.0, -1282.942760599777, 1567.9250071733259, 416.2321655685082, 438.45091120526195, -0.06400000303983688, 0.0, 1.0240000486373901, 0.0, 0.0, 0.0, 0.0, 0.0, 1.706649064400127E9, 0.0, 2024-01-30 13:11:04.400
10.0, -1276.1137032806873, 1794.8340872349218, 305.56852587964386, 313.8449244815856, -0.06400000303983688, 0.0, 1.0240000486373901, 0.0, 0.0, 0.0, 0.0, 0.0, 1.706649064406206E9, 0.0, 2024-01-30 13:11:04.406
10.0, -1324.433210708201, 1993.9650603756309, 126.29455155367032, 112.87205061269924, -0.06400000303983688, 0.0, 1.0240000486373901, 0.0, 0.0, 0.0, 0.0, 0.0, 1.706649064406206E9, 0.0, 2024-01-30 13:11:04.406
11.0, -1564.9274773588404, 2081.5198582382873, 193.9269023523666, 208.83788347570226, -0.06400000303983688, 0.0, 1.0240000486373901, 0.0, 0.0, 0.0, 0.0, 0.0, 1.706649064412103E9, 0.0, 2024-01-30 13:11:04.412
11.0, -1367.367262199521, 2281.4904389190488, 175.73976886784658, 172.97972270054743, -0.06400000303983688, 0.0, 1.0240000486373901, 0.0, 0.0, 0.0, 0.0, 0.0, 1.706649064412103E9, 0.0, 2024-01-30 13:11:04.412
12.0, -1209.096566024702, 2451.337995406706, 94.28661778289825, 76.4809540938586, -0.06400000303983688, 0.0, 1.0240000486373901, 0.0, 0.0, 0.0, 0.0, 0.0, 1.706649064427127E9, 0.0, 2024-01-30 13:11:04.427
12.0, -1274.0361888553016, 2547.277648970019, 270.6902188928798, 285.14867212157696, -0.06400000303983688, 0.0, 1.0240000486373901, 0.0, 0.0, 0.0, 0.0, 0.0, 1.706649064427127E9, 0.0, 2024-01-30 13:11:04.427
13.0, -1507.4452150398865, 2403.3326395754702, 201.6554056107998, 203.08404739387333, -0.06400000303983688, 0.0, 1.0240000486373901, 0.0, 0.0, 0.0, 0.0, 0.0, 1.706649064434086E9, 0.0, 2024-01-30 13:11:04.434
13.0, -1402.0567042385228, 2358.034971312154, 15.413997667375952, 6.142785677220672, -0.06400000303983688, 0.0, 1.0240000486373901, 0.0, 0.0, 0.0, 0.0, 0.0, 1.706649064434086E9, 0.0, 2024-01-30 13:11:04.434
14.0, -1610.0848993738182, 2504.1902615805157, 227.59722165344283, 223.71146559948102, -0.06400000303983688, 0.0, 1.0240000486373901, 0.0, 0.0, 0.0, 0.0, 0.0, 1.706649064443118E9, 0.0, 2024-01-30 13:11:04.443
14.0, -1784.5755416564643, 2543.1824585185386, 434.0490489574149, 436.11347373295575, -0.06400000303983688, 0.0, 1.0240000486373901, 0.0, 0.0, 0.0, 0.0, 0.0, 1.706649064443118E9, 0.0, 2024-01-30 13:11:04.443
15.0, -1792.3564035142772, 2784.3929160106927, 330.58845658320934, 320.71886060014367, -0.06400000303983688, 0.0, 1.0240000486373901, 0.0, 0.0, 0.0, 0.0, 0.0, 1.706649064457215E9, 0.0, 2024-01-30 13:11:04.457
15.0, -1850.9830752196722, 2992.118179249577, 139.8217696934007, 128.60580972628668, -0.06400000303983688, 0.0, 1.0240000486373901, 0.0, 0.0, 0.0, 0.0, 0.0, 1.706649064457215E9, 0.0, 2024-01-30 13:11:04.457
16.0, -2071.921405002009, 3067.465943656862, 201.79939175909385, 220.12864144193009, -0.06400000303983688, 0.0, 1.0240000486373901, 0.0, 0.0, 0.0, 0.0, 0.0, 1.706649064465445E9, 0.0, 2024-01-30 13:11:04.465
16.0, -1846.076326477807, 3271.2474823924713, 165.56350108841434, 175.807087067049, -0.06400000303983688, 0.0, 1.0240000486373901, 0.0, 0.0, 0.0, 0.0, 0.0, 1.706649064465445E9, 0.0, 2024-01-30 13:11:04.465
17.0, -1687.095049311407, 3435.2458353494294, 82.64430922083557, 79.09514416288584, -0.06400000303983688, 0.0, 1.0240000486373901, 0.0, 0.0, 0.0, 0.0, 0.0, 1.70664906447344E9, 0.0, 2024-01-30 13:11:04.473
17.0, -1764.9186274893582, 3532.7188478945754, 259.3396225273609, 283.8434470370412, -0.06400000303983688, 0.0, 1.0240000486373901, 0.0, 0.0, 0.0, 0.0, 0.0, 1.70664906447344E9, 0.0, 2024-01-30 13:11:04.473
18.0, -1532.9737721374258, 3393.10090274876, 200.92986501939595, 212.2168830856681, -0.06400000303983688, 0.0, 1.0240000486373901, 0.0, 0.0, 0.0, 0.0, 0.0, 1.706649064488129E9, 0.0, 2024-01-30 13:11:04.488
18.0, -1462.4336491231807, 3371.6114376033656, 40.998653264250606, 21.431496696081012, -0.06400000303983688, 0.0, 1.0240000486373901, 0.0, 0.0, 0.0, 0.0, 0.0, 1.706649064488129E9, 0.0, 2024-01-30 13:11:04.488
19.0, -1699.0496395197697, 3527.550306155812, 255.42581722373143, 248.48456290597096, -0.06400000303983688, 0.0, 1.0240000486373901, 0.0, 0.0, 0.0, 0.0, 0.0, 1.706649064494096E9, 0.0, 2024-01-30 13:11:04.494
19.0, -1861.28462964762, 3555.7042730222456, 460.90527053922415, 465.116397889331, -0.06400000303983688, 0.0, 1.0240000486373901, 0.0, 0.0, 0.0, 0.0, 0.0, 1.706649064494096E9, 0.0, 2024-01-30 13:11:04.494
20.0, -1875.2662456319667, 3794.076146448031, 352.85582091938704, 344.06705602351576, -0.06400000303983688, 0.0, 1.0240000486373901, 0.0, 0.0, 0.0, 0.0, 0.0, 1.706649064502187E9, 0.0, 2024-01-30 13:11:04.502
20.0, -1929.8912243847735, 4011.20351817552, 172.77402820298448, 149.8260020748712, -0.06400000303983688, 0.0, 1.0240000486373901, 0.0, 0.0, 0.0, 0.0, 0.0, 1.706649064502187E9, 0.0, 2024-01-30 13:11:04.502
21.0, -2157.06022749329, 4093.2232641037554, 238.33073452627286, 248.26764870854095, -0.06400000303983688, 0.0, 1.0240000486373901, 0.0, 0.0, 0.0, 0.0, 0.0, 1.706649064516446E9, 0.0, 2024-01-30 13:11:04.516
21.0, -1948.085837669205, 4295.146072561387, 203.72170033631846, 203.27665224159136, -0.06400000303983688, 0.0, 1.0240000486373901, 0.0, 0.0, 0.0, 0.0, 0.0, 1.706649064516446E9, 0.0, 2024-01-30 13:11:04.516
22.0, -1794.4600972393528, 4460.221516705584, 132.14562503434718, 105.98128494434059, -0.04800000227987766, 0.0, 1.0240000486373901, 0.0, 0.0, 0.0, 0.0, 0.0, 1.706649064523082E9, 0.0, 2024-01-30 13:11:04.523
22.0, -1836.717226838693, 4553.726495397743, 301.3947975290939, 304.1361441966146, -0.04800000227987766, 0.0, 1.0240000486373901, 0.0, 0.0, 0.0, 0.0, 0.0, 1.706649064523082E9, 0.0, 2024-01-30 13:11:04.523
23.0, -2052.3692080336623, 4394.032767289784, 218.00998811703175, 224.83904543612152, -0.04800000227987766, 0.0, 1.0240000486373901, 0.0, 0.0, 0.0, 0.0, 0.0, 1.706649064532131E9, 0.0, 2024-01-30 13:11:04.532
23.0, -1971.3910242430866, 4361.835968571249, 45.39303571218625, 33.53381295269355, -0.04800000227987766, 0.0, 1.0240000486373901, 0.0, 0.0, 0.0, 0.0, 0.0, 1.706649064532131E9, 0.0, 2024-01-30 13:11:04.532
24.0, -2186.607307093218, 4505.994152263273, 253.53342784615234, 255.15280452696607, -0.04800000227987766, 0.0, 1.0240000486373901, 0.0, 0.0, 0.0, 0.0, 0.0, 1.70664906454912E9, 0.0, 2024-01-30 13:11:04.549
24.0, -2327.9287766688503, 4529.948211479466, 446.3159208120778, 461.847725328058, -0.04800000227987766, 0.0, 1.0240000486373901, 0.0, 0.0, 0.0, 0.0, 0.0, 1.70664906454912E9, 0.0, 2024-01-30 13:11:04.549
25.0, -2332.108114869334, 4757.384617434815, 333.57663664780557, 341.32196945603937, -0.04800000227987766, 0.0, 1.0240000486373901, 0.0, 0.0, 0.0, 0.0, 0.0, 1.706649064553224E9, 0.0, 2024-01-30 13:11:04.553
25.0, -2362.2030898127705, 4958.075128857046, 142.70897245919332, 135.85373584041372, -0.04800000227987766, 0.0, 1.0240000486373901, 0.0, 0.0, 0.0, 0.0, 0.0, 1.706649064553224E9, 0.0, 2024-01-30 13:11:04.553
26.0, -2569.531923656352, 5033.688426161185, 204.72773342439905, 225.99654447240755, -0.04800000227987766, 0.0, 1.0240000486373901, 0.0, 0.0, 0.0, 0.0, 0.0, 1.706649064561451E9, 0.0, 2024-01-30 13:11:04.561
26.0, -2373.3330320809036, 5248.958937560674, 179.01218132907525, 187.6663098265417, -0.04800000227987766, 0.0, 1.0240000486373901, 0.0, 0.0, 0.0, 0.0, 0.0, 1.706649064561451E9, 0.0, 2024-01-30 13:11:04.561
27.0, -2241.458549793344, 5420.433350529056, 119.3551671858877, 96.36974205821753, -0.04800000227987766, 0.0, 1.0240000486373901, 0.0, 0.0, 0.0, 0.0, 0.0, 1.706649064577085E9, 0.0, 2024-01-30 13:11:04.577
27.0, -2304.99571014056, 5508.642630883958, 286.8316271016374, 299.80160014797, -0.04800000227987766, 0.0, 1.0240000486373901, 0.0, 0.0, 0.0, 0.0, 0.0, 1.706649064577085E9, 0.0, 2024-01-30 13:11:04.577
28.0, -2524.193116493523, 5355.546086297836, 208.20023053325713, 219.8799380948767, -0.04800000227987766, 0.0, 1.0240000486373901, 0.0, 0.0, 0.0, 0.0, 0.0, 1.706649064583116E9, 0.0, 2024-01-30 13:11:04.583
28.0, -2456.4279992464, 5332.691557668615, 45.845563606824726, 29.22544820373878, -0.04800000227987766, 0.0, 1.0240000486373901, 0.0, 0.0, 0.0, 0.0, 0.0, 1.706649064583116E9, 0.0, 2024-01-30 13:11:04.583
29.0, -2681.296963882167, 5488.510749422479, 256.97039590543136, 246.61087302817032, -0.04800000227987766, 0.0, 1.0240000486373901, 0.0, 0.0, 0.0, 0.0, 0.0, 1.706649064594085E9, 0.0, 2024-01-30 13:11:04.594
29.0, -2814.009183759801, 5498.215789807495, 450.426070863381, 455.9162439983338, -0.04800000227987766, 0.0, 1.0240000486373901, 0.0, 0.0, 0.0, 0.0, 0.0, 1.706649064594085E9, 0.0, 2024-01-30 13:11:04.594
30.0, -2845.1083218413405, 5254.516428894829, 349.8601610548794, 346.25863739755005, -0.04800000227987766, 0.0, 1.0240000486373901, 0.0, 0.0, 0.0, 0.0, 0.0, 1.706649064610231E9, 0.0, 2024-01-30 13:11:04.610
30.0, -2897.7960324171, 5464.874581702519, 162.89321252005175, 144.62380123650655, -0.04800000227987766, 0.0, 1.0240000486373901, 0.0, 0.0, 0.0, 0.0, 0.0, 1.706649064610231E9, 0.0, 2024-01-30 13:11:04.610
31.0, -3107.1855511362664, 5541.980099088978, 225.24482458131388, 239.3891262137331, -0.04800000227987766, 0.0, 1.0240000486373901, 0.0, 0.0, 0.0, 0.0, 0.0, 1.706649064615093E9, 0.0, 2024-01-30 13:11:04.615
31.0, -2899.9689142913558, 5738.207039914094, 194.1812155493535, 204.4472409277223, -0.04800000227987766, 0.0, 1.0240000486373901, 0.0, 0.0, 0.0, 0.0, 0.0, 1.706649064615093E9, 0.0, 2024-01-30 13:11:04.615
32.0, -2761.4822888821363, 5915.519436713308, 128.14393208175898, 111.53877627849579, -0.04800000227987766, 0.0, 1.0240000486373901, 0.0, 0.0, 0.0, 0.0, 0.0, 1.706649064621595E9, 0.0, 2024-01-30 13:11:04.621
32.0, -2809.053816318512, 6004.349540460855, 292.60603263322264, 307.9919810509309, -0.04800000227987766, 0.0, 1.0240000486373901, 0.0, 0.0, 0.0, 0.0, 0.0, 1.706649064621595E9, 0.0, 2024-01-30 13:11:04.621
33.0, -3011.2645970727317, 5838.481237526052, 199.63211973477155, 222.03786036930978, -0.04800000227987766, 0.0, 1.0240000486373901, 0.0, 0.0, 0.0, 0.0, 0.0, 1.706649064637107E9, 0.0, 2024-01-30 13:11:04.637
33.0, -2936.21789461188, 5815.230279501528, 38.09649089863524, 36.237760620657355, -0.04800000227987766, 0.0, 1.0240000486373901, 0.0, 0.0, 0.0, 0.0, 0.0, 1.706649064637107E9, 0.0, 2024-01-30 13:11:04.637
34.0, -3144.2984483465552, 5959.7774127889425, 242.8373139728792, 254.46466293511912, -0.04800000227987766, 0.0, 1.0240000486373901, 0.0, 0.0, 0.0, 0.0, 0.0, 1.706649064645126E9, 0.0, 2024-01-30 13:11:04.645
34.0, -3266.2883750512265, 5974.740752511658, 430.5485025988892, 458.38457796908915, -0.04800000227987766, 0.0, 1.0240000486373901, 0.0, 0.0, 0.0, 0.0, 0.0, 1.706649064645126E9, 0.0, 2024-01-30 13:11:04.645
35.0, -3316.8200333025306, 6213.520275032613, 332.5930429594591, 344.88983401376754, -0.04800000227987766, 0.0, 1.0240000486373901, 0.0, 0.0, 0.0, 0.0, 0.0, 1.706649064652209E9, 0.0, 2024-01-30 13:11:04.652
35.0, -3368.4044733913615, 6430.105361266527, 156.77099629258737, 149.39217368001118, -0.04800000227987766, 0.0, 1.0240000486373901, 0.0, 0.0, 0.0, 0.0, 0.0, 1.706649064652209E9, 0.0, 2024-01-30 13:11:04.652
36.0, -3578.5756312012672, 6510.180359217804, 218.62894155969843, 239.3891262137331, -0.04800000227987766, 0.0, 1.0240000486373901, 0.0, 0.0, 0.0, 0.0, 0.0, 1.706649064667227E9, 0.0, 2024-01-30 13:11:04.667
36.0, -3383.4313914133236, 6715.323221537285, 180.8035934078507, 206.39198890468106, -0.04800000227987766, 0.0, 1.0240000486373901, 0.0, 0.0, 0.0, 0.0, 0.0, 1.706649064667227E9, 0.0, 2024-01-30 13:11:04.667
37.0, -3256.620733665768, 6891.281774552539, 124.45265082549304, 112.0511425724253, -0.04800000227987766, 0.0, 1.0240000486373901, 0.0, 0.0, 0.0, 0.0, 0.0, 1.706649064672323E9, 0.0, 2024-01-30 13:11:04.672
37.0, -3304.656008696649, 6979.225522010587, 292.11610573902726, 309.4879410332069, -0.04800000227987766, 0.0, 1.0240000486373901, 0.0, 0.0, 0.0, 0.0, 0.0, 1.706649064672323E9, 0.0, 2024-01-30 13:11:04.672
38.0, -3505.5914835659787, 6826.458088620566, 202.81851449701935, 225.16441673226655, -0.04800000227987766, 0.0, 1.0240000486373901, 0.0, 0.0, 0.0, 0.0, 0.0, 1.706649064683099E9, 0.0, 2024-01-30 13:11:04.683
38.0, -3451.088051561732, 6797.148492667824, 42.91348204156384, 41.30158516066149, -0.04800000227987766, 0.0, 1.0240000486373901, 0.0, 0.0, 0.0, 0.0, 0.0, 1.706649064683099E9, 0.0, 2024-01-30 13:11:04.683
39.0, -3656.9994633221067, 6941.063582862727, 248.29382800823078, 256.90307770622894, -0.04800000227987766, 0.0, 1.0240000486373901, 0.0, 0.0, 0.0, 0.0, 0.0, 1.706649064698112E9, 0.0, 2024-01-30 13:11:04.698
39.0, -3773.5665350910276, 6964.329500487074, 441.5512882685289, 465.69234248250723, -0.04800000227987766, 0.0, 1.0240000486373901, 0.0, 0.0, 0.0, 0.0, 0.0, 1.706649064698112E9, 0.0, 2024-01-30 13:11:04.698
40.0, -3827.400525003206, 7204.051477796864, 340.7123657632619, 356.63685977458954, -0.04800000227987766, 0.0, 1.0400000493973494, 0.0, 0.0, 0.0, 0.0, 0.0, 1.706649064706209E9, 0.0, 2024-01-30 13:11:04.706
40.0, -3889.164972771425, 7413.388637916651, 156.15017289994285, 154.81502861576155, -0.04800000227987766, 0.0, 1.0400000493973494, 0.0, 0.0, 0.0, 0.0, 0.0, 1.706649064706209E9, 0.0, 2024-01-30 13:11:04.706
41.0, -4082.697315678466, 7494.162997159641, 216.2354055880569, 245.84793343720958, -0.04800000227987766, 0.0, 1.0400000493973494, 0.0, 0.0, 0.0, 0.0, 0.0, 1.706649064729118E9, 0.0, 2024-01-30 13:11:04.729
41.0, -3889.4679046678357, 7692.832092655823, 179.8050401196815, 215.28173109935597, -0.04800000227987766, 0.0, 1.0400000493973494, 0.0, 0.0, 0.0, 0.0, 0.0, 1.706649064729118E9, 0.0, 2024-01-30 13:11:04.729
42.0, -3746.1418487159535, 7869.059918467887, 124.32923412695527, 117.56749500706792, -0.04800000227987766, 0.0, 1.0400000493973494, 0.0, 0.0, 0.0, 0.0, 0.0, 1.706649064738104E9, 0.0, 2024-01-30 13:11:04.738
42.0, -3791.3086204808205, 7966.768544710241, 293.75418191961944, 314.1403765780851, -0.04800000227987766, 0.0, 1.0400000493973494, 0.0, 0.0, 0.0, 0.0, 0.0, 1.706649064738104E9, 0.0, 2024-01-30 13:11:04.738
43.0, -3988.4181776954792, 7797.257579218596, 195.27139638643712, 240.45312775112689, -0.04800000227987766, 0.0, 1.0400000493973494, 0.0, 0.0, 0.0, 0.0, 0.0, 1.706649064742759E9, 0.0, 2024-01-30 13:11:04.742
43.0, -3932.0410558134317, 7773.546613499522, 32.05281257024035, 43.811058030929416, -0.04800000227987766, 0.0, 1.0400000493973494, 0.0, 0.0, 0.0, 0.0, 0.0, 1.706649064742759E9, 0.0, 2024-01-30 13:11:04.742
44.0, -4139.699000853114, 7919.941257365048, 242.37356637837365, 259.15823737950996, -0.04800000227987766, 0.0, 1.0400000493973494, 0.0, 0.0, 0.0, 0.0, 0.0, 1.70664906474842E9, 0.0, 2024-01-30 13:11:04.748
44.0, -4246.905103032943, 7932.327806018293, 424.70303896814585, 462.7004225179553, -0.04800000227987766, 0.0, 1.0400000493973494, 0.0, 0.0, 0.0, 0.0, 0.0, 1.70664906474842E9, 0.0, 2024-01-30 13:11:04.748
45.0, -4294.650535817258, 7687.472816019319, 333.95436654333025, 357.71395096182823, -0.04800000227987766, 0.0, 1.0400000493973494, 0.0, 0.0, 0.0, 0.0, 0.0, 1.706649064760219E9, 0.0, 2024-01-30 13:11:04.760
45.0, -4342.192144053988, 7900.822888791561, 148.89102708594874, 147.3501883042045, -0.04800000227987766, 0.0, 1.0400000493973494, 0.0, 0.0, 0.0, 0.0, 0.0, 1.706649064760219E9, 0.0, 2024-01-30 13:11:04.760
46.0, -4539.599023315124, 7982.326528525911, 205.61034981394187, 231.39696000842378, -0.04800000227987766, 0.0, 1.0400000493973494, 0.0, 0.0, 0.0, 0.0, 0.0, 1.706649064767088E9, 0.0, 2024-01-30 13:11:04.767
46.0, -4347.106372595765, 8177.251984166447, 173.1704575982876, 212.70120012992993, -0.04800000227987766, 0.0, 1.0400000493973494, 0.0, 0.0, 0.0, 0.0, 0.0, 1.706649064767088E9, 0.0, 2024-01-30 13:11:04.767
47.0, -4218.167711773422, 8350.117639918346, 114.80370893981308, 108.61043461319059, -0.04800000227987766, 0.0, 1.0400000493973494, 0.0, 0.0, 0.0, 0.0, 0.0, 1.706649064776119E9, 0.0, 2024-01-30 13:11:04.776
47.0, -4259.493606283795, 8452.747974502388, 289.07930697500706, 296.61146548576653, -0.04800000227987766, 0.0, 1.0400000493973494, 0.0, 0.0, 0.0, 0.0, 0.0, 1.706649064776119E9, 0.0, 2024-01-30 13:11:04.776
48.0, -4468.376368558966, 8282.941556914244, 181.28417055215687, 228.82203888893127, -0.04800000227987766, 0.0, 1.0400000493973494, 0.0, 0.0, 0.0, 0.0, 0.0, 1.706649064786367E9, 0.0, 2024-01-30 13:11:04.786
48.0, -4412.713567568455, 8266.661772407126, 29.54707959992811, 32.70355516253039, -0.04800000227987766, 0.0, 1.0400000493973494, 0.0, 0.0, 0.0, 0.0, 0.0, 1.706649064786367E9, 0.0, 2024-01-30 13:11:04.786
49.0, -4621.112012799364, 8404.555623673368, 243.30106156738475, 245.64597883960232, -0.04800000227987766, 0.0, 1.0400000493973494, 0.0, 0.0, 0.0, 0.0, 0.0, 1.706649064793079E9, 0.0, 2024-01-30 13:11:04.793
49.0, -4739.818307342939, 8430.009382771794, 420.33109591994435, 450.9907957566902, -0.04800000227987766, 0.0, 1.0400000493973494, 0.0, 0.0, 0.0, 0.0, 0.0, 1.706649064793079E9, 0.0, 2024-01-30 13:11:04.793
50.0, -4801.397630063351, 8663.882156550884, 324.8589298510924, 347.25719068571925, -0.04800000227987766, 0.0, 1.0400000493973494, 0.0, 0.0, 0.0, 0.0, 0.0, 1.706649064802095E9, 0.0, 2024-01-30 13:11:04.802
50.0, -4839.682985909749, 8884.932683331892, 142.3050632639788, 132.2260328833945, -0.04800000227987766, 0.0, 1.0400000493973494, 0.0, 0.0, 0.0, 0.0, 0.0, 1.706649064802095E9, 0.0, 2024-01-30 13:11:04.802
51.0, -5006.815375029575, 8963.246188404039, 193.75112705444917, 209.23805277096108, -0.04800000227987766, 0.0, 1.0400000493973494, 0.0, 0.0, 0.0, 0.0, 0.0, 1.706649064820115E9, 0.0, 2024-01-30 13:11:04.820
51.0, -5211.849780250341, 9167.973921828438, 111.1105577335693, 162.2836088272743, -0.04800000227987766, 0.0, 1.0400000493973494, 0.0, 0.0, 0.0, 0.0, 0.0, 1.706649064820115E9, 0.0, 2024-01-30 13:11:04.820
52.0, -5326.086894346867, 9287.132744266652, -120.77071931911632, 128.80028452398255, -0.04800000227987766, 0.0, 1.0400000493973494, 0.0, 0.0, 0.0, 0.0, 0.0, 1.706649064827096E9, 0.0, 2024-01-30 13:11:04.827
52.0, -5361.8496876731515, 9219.429335368797, 46.31118115130812, -89.67719108751044, -0.04800000227987766, 0.0, 1.0400000493973494, 0.0, 0.0, 0.0, 0.0, 0.0, 1.706649064827096E9, 0.0, 2024-01-30 13:11:04.827
53.0, -5384.919260549825, 9213.351997940801, -127.77368198614568, -319.78575556119904, -0.04800000227987766, 0.0, 1.0400000493973494, 0.0, 0.0, 0.0, 0.0, 0.0, 1.706649064832319E9, 0.0, 2024-01-30 13:11:04.832
53.0, -5624.231718814466, 9432.45777674485, -359.79894518712536, -193.38835675874725, -0.04800000227987766, 0.0, 1.0400000493973494, 0.0, 0.0, 0.0, 0.0, 0.0, 1.706649064832319E9, 0.0, 2024-01-30 13:11:04.832
54.0, -5663.852218945045, 9415.495460495818, -254.49832203472033, -175.81830676691607, -0.04800000227987766, 0.0, 1.0400000493973494, 0.0, 0.0, 0.0, 0.0, 0.0, 1.706649064849493E9, 0.0, 2024-01-30 13:11:04.849
54.0, -5859.424677277915, 9579.632189751137, -406.9815230281092, -324.3633931069635, -0.04800000227987766, 0.0, 1.0400000493973494, 0.0, 0.0, 0.0, 0.0, 0.0, 1.706649064849493E9, 0.0, 2024-01-30 13:11:04.849
55.0, -5818.1137423673645, 9433.648934880737, -384.9871713886969, -338.2571214423515, -0.04800000227987766, 0.0, 1.0400000493973494, 0.0, 0.0, 0.0, 0.0, 0.0, 1.706649064857098E9, 0.0, 2024-01-30 13:11:04.857
55.0, -5631.004677634221, 9213.366957540624, -488.39727511350065, -485.39039554912597, -0.04800000227987766, 0.0, 1.0400000493973494, 0.0, 0.0, 0.0, 0.0, 0.0, 1.706649064857098E9, 0.0, 2024-01-30 13:11:04.857
56.0, -5489.82906415686, 9337.21748447325, -387.83884510491043, -365.8781525650993, -0.04800000227987766, 0.0, 1.0400000493973494, 0.0, 0.0, 0.0, 0.0, 0.0, 1.706649064864096E9, 0.0, 2024-01-30 13:11:04.864
56.0, -5444.654812592082, 9577.23491387954, -380.3534353435971, -349.60397790791467, -0.04800000227987766, 0.0, 1.0400000493973494, 0.0, 0.0, 0.0, 0.0, 0.0, 1.706649064864096E9, 0.0, 2024-01-30 13:11:04.864
57.0, -5399.314135479275, 9780.951004365925, -405.4500339962542, -427.57154223416, -0.04800000227987766, 0.0, 1.0400000493973494, 0.0, 0.0, 0.0, 0.0, 0.0, 1.70664906487812E9, 0.0, 2024-01-30 13:11:04.878
57.0, -5512.644323836546, 9888.503047291655, -216.00914164073765, -218.53357411082834, -0.04800000227987766, 0.0, 1.0400000493973494, 0.0, 0.0, 0.0, 0.0, 0.0, 1.70664906487812E9, 0.0, 2024-01-30 13:11:04.878
58.0, -5286.0849244208075, 9731.386110253166, -301.1442242320627, -274.1720657516271, -0.04800000227987766, 0.0, 1.0400000493973494, 0.0, 0.0, 0.0, 0.0, 0.0, 1.706649064885077E9, 0.0, 2024-01-30 13:11:04.885
58.0, -5271.145894047804, 9728.525086787064, -441.6653552171774, -455.7909573498182, -0.04800000227987766, 0.0, 1.0400000493973494, 0.0, 0.0, 0.0, 0.0, 0.0, 1.706649064885077E9, 0.0, 2024-01-30 13:11:04.885
59.0, -5491.194127640687, 9869.321100418922, -230.99679071316496, -250.75468217907473, -0.04800000227987766, 0.0, 1.0400000493973494, 0.0, 0.0, 0.0, 0.0, 0.0, 1.706649064893094E9, 0.0, 2024-01-30 13:11:04.893
59.0, -5604.814158244524, 9889.984047674108, -55.694590140134096, -45.02465556655079, -0.04800000227987766, 0.0, 1.0400000493973494, 0.0, 0.0, 0.0, 0.0, 0.0, 1.706649064893094E9, 0.0, 2024-01-30 13:11:04.893
60.0, -5695.560960719362, 10124.728218142875, -142.1087185163051, -141.86562501918525, -0.04800000227987766, 0.0, 1.0400000493973494, 0.0, 0.0, 0.0, 0.0, 0.0, 1.706649064909218E9, 0.0, 2024-01-30 13:11:04.909
60.0, -5749.662353478372, 10352.65268104244, -322.66921842703596, -353.42989556258544, -0.04800000227987766, 0.0, 1.0400000493973494, 0.0, 0.0, 0.0, 0.0, 0.0, 1.706649064909218E9, 0.0, 2024-01-30 13:11:04.909
61.0, -5929.603899946436, 10431.127001812682, -268.2574139717035, -280.0455786320381, -0.04800000227987766, 0.0, 1.0400000493973494, 0.0, 0.0, 0.0, 0.0, 0.0, 1.706649064916068E9, 0.0, 2024-01-30 13:11:04.916
61.0, -5763.462584314868, 10623.049317788798, -301.5799225769006, -284.3427236811258, -0.04800000227987766, 0.0, 1.0400000493973494, 0.0, 0.0, 0.0, 0.0, 0.0, 1.706649064916068E9, 0.0, 2024-01-30 13:11:04.916
62.0, -5645.014342868235, 10808.50347679155, -354.55373549927026, -387.6555900070816, -0.04800000227987766, 0.0, 1.0400000493973494, 0.0, 0.0, 0.0, 0.0, 0.0, 1.706649064923235E9, 0.0, 2024-01-30 13:11:04.923
62.0, -5695.94430046482, 10907.277974521276, -185.7870100988075, -205.19335096888244, -0.04800000227987766, 0.0, 1.0400000493973494, 0.0, 0.0, 0.0, 0.0, 0.0, 1.706649064923235E9, 0.0, 2024-01-30 13:11:04.923
63.0, -5899.097536007874, 10739.614519607741, -281.37511306628585, -258.99555173143744, -0.04800000227987766, 0.0, 1.0400000493973494, 0.0, 0.0, 0.0, 0.0, 0.0, 1.706649064939125E9, 0.0, 2024-01-30 13:11:04.939
63.0, -5877.161152817775, 10726.887640058529, -431.08891814248636, -454.02572457073256, -0.04800000227987766, 0.0, 1.0400000493973494, 0.0, 0.0, 0.0, 0.0, 0.0, 1.706649064939125E9, 0.0, 2024-01-30 13:11:04.939
64.0, -6094.415681143757, 10873.820829517674, -216.95346637954935, -245.0662943464704, -0.04800000227987766, 0.0, 1.0400000493973494, 0.0, 0.0, 0.0, 0.0, 0.0, 1.706649064945107E9, 0.0, 2024-01-30 13:11:04.945
64.0, -6192.754480528645, 10881.480144626927, -45.5781607599929, -32.19305881857872, -0.04800000227987766, 0.0, 1.0400000493973494, 0.0, 0.0, 0.0, 0.0, 0.0, 1.706649064945107E9, 0.0, 2024-01-30 13:11:04.945
65.0, -6297.073379942682, 10647.392326600384, -129.2060636691749, -125.64941881131381, -0.04800000227987766, 0.0, 1.0400000493973494, 0.0, 0.0, 0.0, 0.0, 0.0, 1.7066490649532E9, 0.0, 2024-01-30 13:11:04.953
65.0, -6351.616080896463, 10859.429694488179, -304.02955704787746, -332.8342665066011, -0.04800000227987766, 0.0, 1.0400000493973494, 0.0, 0.0, 0.0, 0.0, 0.0, 1.7066490649532E9, 0.0, 2024-01-30 13:11:04.953
66.0, -6541.064453051891, 10943.513865191955, -251.44656367087737, -257.2134894025512, -0.04800000227987766, 0.0, 1.0400000493973494, 0.0, 0.0, 0.0, 0.0, 0.0, 1.706649064969093E9, 0.0, 2024-01-30 13:11:04.969
66.0, -6377.627085088287, 11137.7885782402, -276.5188529738225, -253.07529010158032, -0.04800000227987766, 0.0, 1.0400000493973494, 0.0, 0.0, 0.0, 0.0, 0.0, 1.706649064969093E9, 0.0, 2024-01-30 13:11:04.969
67.0, -6272.911756278947, 11318.306069301441, -327.24124612286687, -363.72210024064407, -0.04800000227987766, 0.0, 1.0400000493973494, 0.0, 0.0, 0.0, 0.0, 0.0, 1.706649064976091E9, 0.0, 2024-01-30 13:11:04.976
67.0, -6320.6777585130185, 11429.654110682197, -149.2930663311854, -176.76076155574992, -0.04800000227987766, 0.0, 1.0400000493973494, 0.0, 0.0, 0.0, 0.0, 0.0, 1.706649064976091E9, 0.0, 2024-01-30 13:11:04.976
68.0, -6527.664391510654, 11240.654526521452, -249.49620584398508, -227.58226205362007, -0.04800000227987766, 0.0, 1.0400000493973494, 0.0, 0.0, 0.0, 0.0, 0.0, 1.706649064984098E9, 0.0, 2024-01-30 13:11:04.984
68.0, -6509.95783517044, 11236.641613868997, -392.67266579763964, -413.83862959686667, -0.04800000227987766, 0.0, 1.0400000493973494, 0.0, 0.0, 0.0, 0.0, 0.0, 1.706649064984098E9, 0.0, 2024-01-30 13:11:04.984
69.0, -6723.760435837321, 11386.562983392738, -178.2903806376271, -204.78570187371224, -0.04800000227987766, 0.0, 1.0400000493973494, 0.0, 0.0, 0.0, 0.0, 0.0, 1.70664906499772E9, 0.0, 2024-01-30 13:11:04.997
69.0, -6819.903913948219, 11401.088754820637, -2.1841015741229057, 5.996929578948766, -0.04800000227987766, 0.0, 1.0400000493973494, 0.0, 0.0, 0.0, 0.0, 0.0, 1.70664906499772E9, 0.0, 2024-01-30 13:11:04.997
70.0, -6931.769931472838, 11159.479997983202, -82.73780671972781, -80.27508259890601, -0.04800000227987766, 0.0, 1.0400000493973494, 0.0, 0.0, 0.0, 0.0, 0.0, 1.706649065004212E9, 0.0, 2024-01-30 13:11:05.004
70.0, -6993.347384243272, 11371.128416275606, -258.735628684517, -292.19838353805244, -0.04800000227987766, 0.0, 1.0400000493973494, 0.0, 0.0, 0.0, 0.0, 0.0, 1.706649065004212E9, 0.0, 2024-01-30 13:11:05.004
71.0, -7178.356495151296, 11457.090016757138, -204.58561722608283, -213.64926476869732, -0.04800000227987766, 0.0, 1.0400000493973494, 0.0, 0.0, 0.0, 0.0, 0.0, 1.70664906501245E9, 0.0, 2024-01-30 13:11:05.012
71.0, -7010.95483323466, 11646.727253860328, -226.98761796066537, -208.8939819750376, -0.04800000227987766, 0.0, 1.0400000493973494, 0.0, 0.0, 0.0, 0.0, 0.0, 1.70664906501245E9, 0.0, 2024-01-30 13:11:05.012
72.0, -6904.496711045969, 11847.623459780123, -271.5055170832202, -308.75492064189166, -0.04800000227987766, 0.0, 1.0400000493973494, 0.0, 0.0, 0.0, 0.0, 0.0, 1.706649065030112E9, 0.0, 2024-01-30 13:11:05.030
72.0, -6954.645029551815, 11941.031201073434, -97.58520954381675, -128.2411694806069, -0.04800000227987766, 0.0, 1.0400000493973494, 0.0, 0.0, 0.0, 0.0, 0.0, 1.706649065030112E9, 0.0, 2024-01-30 13:11:05.030
73.0, -7155.434648322873, 11756.64665345801, -195.85856067948043, -171.27245837077498, -0.04800000227987766, 0.0, 1.0400000493973494, 0.0, 0.0, 0.0, 0.0, 0.0, 1.706649065038095E9, 0.0, 2024-01-30 13:11:05.038
73.0, -7150.630746829789, 11758.071555341128, -331.630018720869, -360.57310447795317, -0.04800000227987766, 0.0, 1.0400000493973494, 0.0, 0.0, 0.0, 0.0, 0.0, 1.706649065038095E9, 0.0, 2024-01-30 13:11:05.038
74.0, -7382.627960781101, 11913.262443902437, -112.18764892080799, -146.46383201470599, -0.04800000227987766, 0.0, 1.0400000493973494, 0.0, 0.0, 0.0, 0.0, 0.0, 1.706649065043747E9, 0.0, 2024-01-30 13:11:05.043
74.0, -7492.852162225172, 11924.164252273273, 73.79196602571756, 84.36466320045292, -0.04800000227987766, 0.0, 1.0400000493973494, 0.0, 0.0, 0.0, 0.0, 0.0, 1.706649065043747E9, 0.0, 2024-01-30 13:11:05.043
75.0, -7640.011615631636, 12163.93110838253, 12.648341650143266, 10.8943285709247, -0.04800000227987766, 0.0, 1.0400000493973494, 0.0, 0.0, 0.0, 0.0, 0.0, 1.706649065058211E9, 0.0, 2024-01-30 13:11:05.058
75.0, -7768.570676608477, 12406.86378980428, -131.96049998654053, -173.75762189133093, -0.04800000227987766, 0.0, 1.0400000493973494, 0.0, 0.0, 0.0, 0.0, 0.0, 1.706649065058211E9, 0.0, 2024-01-30 13:11:05.058
76.0, -7853.477625302505, 12481.519672719762, -120.90909561747685, -140.61836838396266, -0.04800000227987766, 0.0, 1.0400000493973494, 0.0, 0.0, 0.0, 0.0, 0.0, 1.706649065065748E9, 0.0, 2024-01-30 13:11:05.065
76.0, -7632.834747616667, 12662.629937923979, -170.39171193121, -152.71320484066382, -0.04800000227987766, 0.0, 1.0400000493973494, 0.0, 0.0, 0.0, 0.0, 0.0, 1.706649065065748E9, 0.0, 2024-01-30 13:11:05.065
77.0, -7491.262704744004, 12852.904827969614, -233.9606614280492, -272.44423197209835, -0.04800000227987766, 0.0, 1.0400000493973494, 0.0, 0.0, 0.0, 0.0, 0.0, 1.706649065071436E9, 0.0, 2024-01-30 13:11:05.071
77.0, -7521.439957486466, 12942.632507706527, -57.385024920105934, -86.76567897200584, -0.04800000227987766, 0.0, 1.0400000493973494, 0.0, 0.0, 0.0, 0.0, 0.0, 1.706649065071436E9, 0.0, 2024-01-30 13:11:05.071
78.0, -7717.2517694165, 12746.358818131965, -154.35689087118953, -119.77029608096927, -0.04800000227987766, 0.0, 1.0400000493973494, 0.0, 0.0, 0.0, 0.0, 0.0, 1.706649065087099E9, 0.0, 2024-01-30 13:11:05.087
78.0, -7658.469891862944, 12758.610730386805, -308.17710609873757, -328.1070329626091, -0.04800000227987766, 0.0, 1.0400000493973494, 0.0, 0.0, 0.0, 0.0, 0.0, 1.706649065087099E9, 0.0, 2024-01-30 13:11:05.087
79.0, -7788.719387619756, 12895.405051066075, -139.31314329942688, -165.73553648637608, -0.04800000227987766, 0.0, 1.0400000493973494, 0.0, 0.0, 0.0, 0.0, 0.0, 1.706649065094452E9, 0.0, 2024-01-30 13:11:05.094
79.0, -7804.3577792844735, 12876.43253859086, 11.058884168975055, 27.37606767565012, -0.04800000227987766, 0.0, 1.0400000493973494, 0.0, 0.0, 0.0, 0.0, 0.0, 1.706649065094452E9, 0.0, 2024-01-30 13:11:05.094
80.0, -7892.191199693829, 13121.109883341938, -70.94590215943754, -65.91573671903461, -0.04800000227987766, 0.0, 1.0240000486373901, 0.0, 0.0, 0.0, 0.0, 0.0, 1.706649065102201E9, 0.0, 2024-01-30 13:11:05.102
80.0, -7945.204281565733, 13339.74443475157, -250.92671757703647, -282.8916424983181, -0.04800000227987766, 0.0, 1.0240000486373901, 0.0, 0.0, 0.0, 0.0, 0.0, 1.706649065102201E9, 0.0, 2024-01-30 13:11:05.102
81.0, -8105.922742261551, 13416.39742424339, -205.8945822105743, -215.07603660179302, -0.04800000227987766, 0.0, 1.0240000486373901, 0.0, 0.0, 0.0, 0.0, 0.0, 1.706649065117084E9, 0.0, 2024-01-30 13:11:05.117
81.0, -7944.160849478096, 13598.566081135068, -226.78192346310243, -195.46961108408868, -0.04800000227987766, 0.0, 1.0240000486373901, 0.0, 0.0, 0.0, 0.0, 0.0, 1.706649065117084E9, 0.0, 2024-01-30 13:11:05.117
82.0, -7826.497987022158, 13796.631182788406, -284.67370482720435, -318.45435117697343, -0.04800000227987766, 0.0, 1.0240000486373901, 0.0, 0.0, 0.0, 0.0, 0.0, 1.706649065126094E9, 0.0, 2024-01-30 13:11:05.126
82.0, -7835.069837720599, 13893.453452741262, -124.92013831995428, -156.22871079901233, -0.04800000227987766, 0.0, 1.0240000486373901, 0.0, 0.0, 0.0, 0.0, 0.0, 1.706649065126094E9, 0.0, 2024-01-30 13:11:05.126
83.0, -7987.970037559047, 13689.77850115439, -240.741100047715, -207.82811048766598, -0.04800000227987766, 0.0, 1.0240000486373901, 0.0, 0.0, 0.0, 0.0, 0.0, 1.706649065133096E9, 0.0, 2024-01-30 13:11:05.133
83.0, -7963.041734404396, 13697.183503066655, -391.99948380561545, -423.73066497966647, -0.04800000227987766, 0.0, 1.0240000486373901, 0.0, 0.0, 0.0, 0.0, 0.0, 1.706649065133096E9, 0.0, 2024-01-30 13:11:05.133
84.0, -8117.320087376516, 13840.870459364261, -201.9265483575873, -243.4113886160776, -0.04800000227987766, 0.0, 1.0240000486373901, 0.0, 0.0, 0.0, 0.0, 0.0, 1.706649065148418E9, 0.0, 2024-01-30 13:11:05.148
84.0, -8148.404265858233, 13822.911459777039, -50.82150049787015, -39.850503977853805, -0.04800000227987766, 0.0, 1.0240000486373901, 0.0, 0.0, 0.0, 0.0, 0.0, 1.706649065148418E9, 0.0, 2024-01-30 13:11:05.148
85.0, -8252.259417677764, 13583.247450916562, -131.83147343806922, -132.25969198299572, -0.04800000227987766, 0.0, 1.0240000486373901, 0.0, 0.0, 0.0, 0.0, 0.0, 1.706649065153427E9, 0.0, 2024-01-30 13:11:05.153
85.0, -8289.677116734441, 13803.000232412945, -319.70721766212955, -358.77608254924417, -0.04800000227987766, 0.0, 1.0240000486373901, 0.0, 0.0, 0.0, 0.0, 0.0, 1.706649065153427E9, 0.0, 2024-01-30 13:11:05.153
86.0, -8426.95762440795, 13881.235199586023, -283.1197763956152, -306.8513115644455, -0.04800000227987766, 0.0, 1.0240000486373901, 0.0, 0.0, 0.0, 0.0, 0.0, 1.706649065162112E9, 0.0, 2024-01-30 13:11:05.162
86.0, -8240.564750516322, 14053.253767997958, -321.85018033673987, -297.4884720253758, -0.04800000227987766, 0.0, 1.0240000486373901, 0.0, 0.0, 0.0, 0.0, 0.0, 1.706649065162112E9, 0.0, 2024-01-30 13:11:05.162
87.0, -8121.630322075449, 14254.456645714119, -374.7716346597299, -423.03504358790815, -0.04800000227987766, 0.0, 1.0240000486373901, 0.0, 0.0, 0.0, 0.0, 0.0, 1.706649065177102E9, 0.0, 2024-01-30 13:11:05.177
87.0, -8135.146320515312, 14344.928565542214, -214.60667915735394, -268.2705036215484, -0.04800000227987766, 0.0, 1.0240000486373901, 0.0, 0.0, 0.0, 0.0, 0.0, 1.706649065177102E9, 0.0, 2024-01-30 13:11:05.177
88.0, -8294.097678482067, 14134.458215735853, -327.87328921537846, -321.089110695757, -0.04800000227987766, 0.0, 1.0240000486373901, 0.0, 0.0, 0.0, 0.0, 0.0, 1.706649065183115E9, 0.0, 2024-01-30 13:11:05.183
88.0, -8299.524273317773, 14149.769366154447, -471.5845548626967, -532.1410149452277, -0.04800000227987766, 0.0, 1.0240000486373901, 0.0, 0.0, 0.0, 0.0, 0.0, 1.706649065183115E9, 0.0, 2024-01-30 13:11:05.183
89.0, -8506.363180267159, 14305.461401309818, -266.64551709080115, -345.7070021540858, -0.04800000227987766, 0.0, 1.0240000486373901, 0.0, 0.0, 0.0, 0.0, 0.0, 1.706649065193103E9, 0.0, 2024-01-30 13:11:05.193
89.0, -8557.560540710576, 14299.832851876505, -103.31847617588937, -138.2154826624319, -0.04800000227987766, 0.0, 1.0240000486373901, 0.0, 0.0, 0.0, 0.0, 0.0, 1.706649065193103E9, 0.0, 2024-01-30 13:11:05.193
