%OpenBCI Raw EXG Data
%Number of channels = 4
%Sample Rate = 200 Hz
%Board = OpenBCI_GUI$BoardGanglionBLE
Sample Index, EXG Channel 0, EXG Channel 1, EXG Channel 2, EXG Channel 3, Accel Channel 0, Accel Channel 1, Accel Channel 2, Other, Other, Other, Other, Other, Timestamp, Other, Timestamp (Formatted)
93.0, 126.89667544653639, 190.49367419304326, 75.48427075566724, 58.66594065492973, 0.0, 0.0, 0.0, 0.0, 0.0, 0.0, 0.0, 0.0, 1.708636542514815E9, 0.0, 2024-02-22 13:15:42.514
93.0, 267.12422428512946, 238.78326242091134, 124.65647537307814, 157.80320868035778, 0.0, 0.0, 0.0, 0.0, 0.0, 0.0, 0.0, 0.0, 1.708636542514815E9, 0.0, 2024-02-22 13:15:42.514
0.0, 163.8524968586862, 133.04320102371275, 125.55592131242156, 171.86149261379614, 0.0, 0.0, 0.0, 0.0, 0.0, 0.0, 0.0, 0.0, 1.708636542537873E9, 0.0, 2024-02-22 13:15:42.537
1.0, 77.29064243426546, 129.83623681170866, 276.11681372858584, 155.4826007578522, 0.0, 0.06400000303983688, 0.0, 0.0, 0.0, 0.0, 0.0, 0.0, 1.708636542550039E9, 0.0, 2024-02-22 13:15:42.550
1.0, 287.8451399896294, 315.6999148596078, 482.49010313348845, 11.429134264588356, 0.0, 0.06400000303983688, 0.0, 0.0, 0.0, 0.0, 0.0, 0.0, 1.708636542550039E9, 0.0, 2024-02-22 13:15:42.550
2.0, 456.4847087915987, 414.85962228477, 606.430387665052, 207.7664021383971, 0.01600000075995922, 0.06400000303983688, 0.0, 0.0, 0.0, 0.0, 0.0, 0.0, 1.708636542568788E9, 0.0, 2024-02-22 13:15:42.568
2.0, 645.5628308514133, 175.37699857214466, 826.5608990569599, 247.51779876742512, 0.01600000075995922, 0.06400000303983688, 0.0, 0.0, 0.0, 0.0, 0.0, 0.0, 1.708636542568788E9, 0.0, 2024-02-22 13:15:42.568
3.0, 880.5650544171222, -44.01675252849236, 916.1371128456667, 380.6376677402295, 0.01600000075995922, 0.06400000303983688, 0.0, 0.0, 0.0, 0.0, 0.0, 0.0, 1.70863654257391E9, 0.0, 2024-02-22 13:15:42.573
3.0, 978.8664548024535, -40.94068481493741, 755.1119803534821, 376.96134608378634, 0.01600000075995922, 0.06400000303983688, 0.0, 0.0, 0.0, 0.0, 0.0, 0.0, 1.70863654257391E9, 0.0, 2024-02-22 13:15:42.573
4.0, 776.4013608512469, -225.8319888743572, 556.5737813557498, 535.3872481067665, 0.01600000075995922, 0.06400000303983688, 0.0, 0.0, 0.0, 0.0, 0.0, 0.0, 1.708636542580782E9, 0.0, 2024-02-22 13:15:42.580
4.0, 591.740060639102, -340.27666741842404, 413.57122675003484, 323.8435470131226, 0.01600000075995922, 0.06400000303983688, 0.0, 0.0, 0.0, 0.0, 0.0, 0.0, 1.708636542580782E9, 0.0, 2024-02-22 13:15:42.580
5.0, 378.1917731692083, -121.33357426244766, 182.09759879251942, 274.1215771022253, 0.01600000075995922, 0.06400000303983688, 0.0, 0.0, 0.0, 0.0, 0.0, 0.0, 1.708636542593379E9, 0.0, 2024-02-22 13:15:42.593
5.0, 139.79372044373304, 95.98079246282578, 94.61198907904327, 146.09171196911484, 0.01600000075995922, 0.06400000303983688, 0.0, 0.0, 0.0, 0.0, 0.0, 0.0, 1.708636542593379E9, 0.0, 2024-02-22 13:15:42.593
6.0, 38.90804918901995, 72.80650238739327, 233.71756793092936, 125.13144266745076, 0.01600000075995922, 0.06400000303983688, 0.0, 0.0, 0.0, 0.0, 0.0, 0.0, 1.708636542596809E9, 0.0, 2024-02-22 13:15:42.596
6.0, 221.77980727236718, 234.71238131914288, 421.7092490536161, -36.275159620214254, 0.01600000075995922, 0.06400000303983688, 0.0, 0.0, 0.0, 0.0, 0.0, 0.0, 1.708636542596809E9, 0.0, 2024-02-22 13:15:42.596
7.0, 397.7869789870456, 347.7583372797817, 558.6569056310691, 169.86438603745773, 0.01600000075995922, 0.06400000303983688, 0.0, 0.0, 0.0, 0.0, 0.0, 0.0, 1.708636542607532E9, 0.0, 2024-02-22 13:15:42.607
7.0, 597.348040622659, 109.15085015678778, 774.7932038703002, 199.39463608758524, 0.01600000075995922, 0.06400000303983688, 0.0, 0.0, 0.0, 0.0, 0.0, 0.0, 1.708636542607532E9, 0.0, 2024-02-22 13:15:42.607
8.0, 820.348925230559, -130.2251864071004, 855.6591906622052, 323.4228082681075, 0.01600000075995922, 0.06400000303983688, 0.0, 0.0, 0.0, 0.0, 0.0, 0.0, 1.70863654262294E9, 0.0, 2024-02-22 13:15:42.622
8.0, 912.0793213937432, -115.45445153210312, 702.4878480769694, 330.4033315354027, 0.01600000075995922, 0.06400000303983688, 0.0, 0.0, 0.0, 0.0, 0.0, 0.0, 1.70863654262294E9, 0.0, 2024-02-22 13:15:42.622
9.0, 705.9117264864035, -298.39726771460846, 507.42401613807306, 488.38792536361143, 0.01600000075995922, 0.06400000303983688, 0.0, 0.0, 0.0, 0.0, 0.0, 0.0, 1.708636542630456E9, 0.0, 2024-02-22 13:15:42.630
9.0, 516.8485640264116, -433.8639239096083, 353.4149359627627, 263.01033433387056, 0.01600000075995922, 0.06400000303983688, 0.0, 0.0, 0.0, 0.0, 0.0, 0.0, 1.708636542630456E9, 0.0, 2024-02-22 13:15:42.630
10.0, 317.78864898486063, -193.13591351173818, 136.381061734166, 228.06844904785976, 0.01600000075995922, 0.06400000303983688, 0.5120000243186951, 0.0, 0.0, 0.0, 0.0, 0.0, 1.708636542639476E9, 0.0, 2024-02-22 13:15:42.639
10.0, 83.99441310483962, 35.158799483440816, 60.586379282176495, 112.77668316382915, 0.01600000075995922, 0.06400000303983688, 0.5120000243186951, 0.0, 0.0, 0.0, 0.0, 0.0, 1.708636542639476E9, 0.0, 2024-02-22 13:15:42.639
11.0, -38.02917269943282, -12.504355501849204, 175.99221211485565, 72.78780288761482, 0.01600000075995922, 0.11200000531971455, 0.5120000243186951, 0.0, 0.0, 0.0, 0.0, 0.0, 1.708636542654803E9, 0.0, 2024-02-22 13:15:42.654
11.0, 151.27895320765674, 159.02802591584623, 377.339075979311, -74.39595986856148, 0.01600000075995922, 0.11200000531971455, 0.5120000243186951, 0.0, 0.0, 0.0, 0.0, 0.0, 1.708636542654803E9, 0.0, 2024-02-22 13:15:42.654
12.0, 351.40099983662367, 290.96795645263046, 529.036897982005, 144.88559423340484, 0.01600000075995922, 0.11200000531971455, 0.5120000243186951, 0.0, 0.0, 0.0, 0.0, 0.0, 1.708636542660797E9, 0.0, 2024-02-22 13:15:42.660
12.0, 527.6924039479345, 523.1334659019485, 724.3307337681763, 160.2752825510688, 0.01600000075995922, 0.11200000531971455, 0.5120000243186951, 0.0, 0.0, 0.0, 0.0, 0.0, 1.708636542660797E9, 0.0, 2024-02-22 13:15:42.660
13.0, 755.8506105947308, 288.30140778422356, 806.4608067451045, 290.38079215958714, 0.01600000075995922, 0.11200000531971455, 0.5120000243186951, 0.0, 0.0, 0.0, 0.0, 0.0, 1.708636542667797E9, 0.0, 2024-02-22 13:15:42.667
13.0, 872.2157277660444, 346.24180784774944, 688.6726576406509, 317.3174215904437, 0.01600000075995922, 0.11200000531971455, 0.5120000243186951, 0.0, 0.0, 0.0, 0.0, 0.0, 1.708636542667797E9, 0.0, 2024-02-22 13:15:42.667
14.0, 669.724454515148, 144.65185048617423, 480.33592075901106, 469.14240019163117, 0.01600000075995922, 0.11200000531971455, 0.5120000243186951, 0.0, 0.0, 0.0, 0.0, 0.0, 1.70863654268583E9, 0.0, 2024-02-22 13:15:42.685
14.0, 455.6712805512361, -3.2836321610957384, 315.4250322128646, 237.10778724076226, 0.01600000075995922, 0.11200000531971455, 0.5120000243186951, 0.0, 0.0, 0.0, 0.0, 0.0, 1.70863654268583E9, 0.0, 2024-02-22 13:15:42.685
15.0, 278.2915655528195, -227.3335587065667, 126.47780665149912, 228.76781033957377, 0.01600000075995922, 0.11200000531971455, 0.5120000243186951, 0.0, 0.0, 0.0, 0.0, 0.0, 1.708636542691141E9, 0.0, 2024-02-22 13:15:42.691
15.0, 61.07256627641618, 13.70299343764782, 56.539807530120015, 115.87706022709608, 0.01600000075995922, 0.11200000531971455, 0.5120000243186951, 0.0, 0.0, 0.0, 0.0, 0.0, 1.708636542691141E9, 0.0, 2024-02-22 13:15:42.691
16.0, -93.04310104763135, -65.62589447246864, 145.96829527057707, 45.94280100567266, 0.01600000075995922, 0.11200000531971455, 0.5120000243186951, 0.0, 0.0, 0.0, 0.0, 0.0, 1.708636542699792E9, 0.0, 2024-02-22 13:15:42.699
16.0, 121.01194286625832, 143.48874159995466, 373.5019386247732, -73.35626768087968, 0.01600000075995922, 0.11200000531971455, 0.5120000243186951, 0.0, 0.0, 0.0, 0.0, 0.0, 1.708636542699792E9, 0.0, 2024-02-22 13:15:42.699
17.0, 344.4934046184644, 303.13011110853404, 550.5039237276651, 164.58364730002359, 0.01600000075995922, 0.11200000531971455, 0.5120000243186951, 0.0, 0.0, 0.0, 0.0, 0.0, 1.708636542715137E9, 0.0, 2024-02-22 13:15:42.715
17.0, 492.6121423635632, 498.9849318880588, 716.2001912645064, 148.19727564416826, 0.01600000075995922, 0.11200000531971455, 0.5120000243186951, 0.0, 0.0, 0.0, 0.0, 0.0, 1.708636542715137E9, 0.0, 2024-02-22 13:15:42.715
18.0, 728.4371439195238, 274.7255709450692, 815.8778748335317, 288.9689799263142, 0.01600000075995922, 0.11200000531971455, 0.5120000243186951, 0.0, 0.0, 0.0, 0.0, 0.0, 1.708636542719118E9, 0.0, 2024-02-22 13:15:42.719
18.0, 883.2259932355955, 374.6800071108155, 727.0814301855862, 345.5667559057474, 0.01600000075995922, 0.11200000531971455, 0.5120000243186951, 0.0, 0.0, 0.0, 0.0, 0.0, 1.708636542719118E9, 0.0, 2024-02-22 13:15:42.719
19.0, 671.9422151888721, 162.16954187862575, 504.46575527312234, 480.3677099086344, 0.01600000075995922, 0.11200000531971455, 0.5120000243186951, 0.0, 0.0, 0.0, 0.0, 0.0, 1.708636542727799E9, 0.0, 2024-02-22 13:15:42.727
19.0, 455.5216845530085, 5.864163130521774, 331.3233469245024, 245.53191189095378, 0.01600000075995922, 0.11200000531971455, 0.5120000243186951, 0.0, 0.0, 0.0, 0.0, 0.0, 1.708636542727799E9, 0.0, 2024-02-22 13:15:42.727
20.0, 325.9977293876, -156.79156574234366, 185.4784683524631, 274.57784489681944, 0.01600000075995922, 0.11200000531971455, 0.7680000364780426, 0.0, 0.0, 0.0, 0.0, 0.0, 1.708636542742707E9, 0.0, 2024-02-22 13:15:42.742
20.0, 117.5375758074224, -389.41521293623373, 123.66353193484247, 163.3401305647567, 0.01600000075995922, 0.11200000531971455, 0.7680000364780426, 0.0, 0.0, 0.0, 0.0, 0.0, 1.708636542742707E9, 0.0, 2024-02-22 13:15:42.742
21.0, -44.54407842224464, -506.06830240413547, 187.03613668400794, 82.2422699755989, 0.01600000075995922, 0.12800000607967377, 0.7680000364780426, 0.0, 0.0, 0.0, 0.0, 0.0, 1.708636542748455E9, 0.0, 2024-02-22 13:15:42.748
21.0, 186.95011898502707, -273.94580180430785, -54.28090795688331, -17.684116940479726, 0.01600000075995922, 0.12800000607967377, 0.7680000364780426, 0.0, 0.0, 0.0, 0.0, 0.0, 1.708636542748455E9, 0.0, 2024-02-22 13:15:42.748
22.0, 428.36440102476627, -88.1700114053674, 135.26096169743687, -250.14694843627512, 0.01600000075995922, 0.12800000607967377, 0.7680000364780426, 0.0, 0.0, 0.0, 0.0, 0.0, 1.708636542758581E9, 0.0, 2024-02-22 13:15:42.758
22.0, 576.1128886742517, 96.63340500509366, 286.9139049006626, -280.299891829025, 0.01600000075995922, 0.12800000607967377, 0.7680000364780426, 0.0, 0.0, 0.0, 0.0, 0.0, 1.708636542758581E9, 0.0, 2024-02-22 13:15:42.758
23.0, 811.4666628357954, -123.74019988393411, 377.978598871734, -130.51502865366638, 0.01600000075995922, 0.12800000607967377, 0.7680000364780426, 0.0, 0.0, 0.0, 0.0, 0.0, 1.708636542773546E9, 0.0, 2024-02-22 13:15:42.773
23.0, 980.4671319834888, 3.0854174634441733, 310.73519766842946, -54.368795605842024, 0.01600000075995922, 0.12800000607967377, 0.7680000364780426, 0.0, 0.0, 0.0, 0.0, 0.0, 1.708636542773546E9, 0.0, 2024-02-22 13:15:42.773
24.0, 778.521884126123, -209.3053709701635, 86.57120417430997, 76.91665243869647, 0.01600000075995922, 0.12800000607967377, 0.7680000364780426, 0.0, 0.0, 0.0, 0.0, 0.0, 1.708636542780806E9, 0.0, 2024-02-22 13:15:42.780
24.0, 534.0932427220978, -399.1987912203185, -102.55179668497294, 305.13095758482814, 0.01600000075995922, 0.12800000607967377, 0.7680000364780426, 0.0, 0.0, 0.0, 0.0, 0.0, 1.708636542780806E9, 0.0, 2024-02-22 13:15:42.780
25.0, 385.74263117974624, -578.7214688933454, -261.77055749855936, 325.8855323889293, 0.01600000075995922, 0.12800000607967377, 0.7680000364780426, 0.0, 0.0, 0.0, 0.0, 0.0, 1.708636542789792E9, 0.0, 2024-02-22 13:15:42.789
25.0, 188.3825006680563, -808.2821380235255, -323.22646352043375, 224.03870684560388, 0.01600000075995922, 0.12800000607967377, 0.7680000364780426, 0.0, 0.0, 0.0, 0.0, 0.0, 1.708636542789792E9, 0.0, 2024-02-22 13:15:42.789
26.0, 23.226648674812168, -922.1452621244825, -270.4003766463138, 128.91248152265325, 0.01600000075995922, 0.12800000607967377, 0.7680000364780426, 0.0, 0.0, 0.0, 0.0, 0.0, 1.708636542803535E9, 0.0, 2024-02-22 13:15:42.803
26.0, 231.52972645685077, -722.223300143145, -31.77792992349714, 12.579153500963002, 0.01600000075995922, 0.12800000607967377, 0.7680000364780426, 0.0, 0.0, 0.0, 0.0, 0.0, 1.708636542803535E9, 0.0, 2024-02-22 13:15:42.803
27.0, 474.8513574739918, -531.9110110979527, 159.91812210530043, -227.56169260386378, 0.01600000075995922, 0.12800000607967377, 0.7680000364780426, 0.0, 0.0, 0.0, 0.0, 0.0, 1.708636542809118E9, 0.0, 2024-02-22 13:15:42.809
27.0, 614.2075096229091, -362.4748436054215, 294.3600457124412, -265.6694032023661, 0.01600000075995922, 0.12800000607967377, 0.7680000364780426, 0.0, 0.0, 0.0, 0.0, 0.0, 1.708636542809118E9, 0.0, 2024-02-22 13:15:42.809
28.0, 810.6738040451892, -128.65816832566634, 367.8621694915928, -136.86911867838353, 0.01600000075995922, 0.12800000607967377, 0.7680000364780426, 0.0, 0.0, 0.0, 0.0, 0.0, 1.708636542817925E9, 0.0, 2024-02-22 13:15:42.817
28.0, 981.3048695735633, -12.08361675683409, 308.3491414966993, -67.95959204481915, 0.01600000075995922, 0.12800000607967377, 0.7680000364780426, 0.0, 0.0, 0.0, 0.0, 0.0, 1.708636542817925E9, 0.0, 2024-02-22 13:15:42.817
29.0, 772.8447159933858, -226.07508237147704, 73.45163512974977, 60.91736042825505, 0.01600000075995922, 0.12800000607967377, 0.7680000364780426, 0.0, 0.0, 0.0, 0.0, 0.0, 1.708636542850793E9, 0.0, 2024-02-22 13:15:42.850
29.0, 992.2627764437348, -442.4918731073849, -142.4378297124058, 272.1562596755102, 0.01600000075995922, 0.12800000607967377, 0.7680000364780426, 0.0, 0.0, 0.0, 0.0, 0.0, 1.708636542850793E9, 0.0, 2024-02-22 13:15:42.850
30.0, 846.3543195724487, -620.6794064962305, -285.6498187156394, 301.65846047597006, 0.01600000075995922, 0.12800000607967377, 0.8960000425577164, 0.0, 0.0, 0.0, 0.0, 0.0, 1.708636542856804E9, 0.0, 2024-02-22 13:15:42.856
30.0, 665.382430666592, -833.3768667262048, -336.3946512644179, 197.75095005705953, 0.01600000075995922, 0.12800000607967377, 0.8960000425577164, 0.0, 0.0, 0.0, 0.0, 0.0, 1.708636542856804E9, 0.0, 2024-02-22 13:15:42.856
31.0, 475.25152676925063, -974.1822301079519, -296.2991838394664, 83.91774515574798, 0.01600000075995922, 0.12800000607967377, 0.8960000425577164, 0.0, 0.0, 0.0, 0.0, 0.0, 1.708636542860585E9, 0.0, 2024-02-22 13:15:42.860
31.0, 672.6714956802316, -774.8848314192146, -72.60641773976386, -27.11988452868536, 0.01600000075995922, 0.12800000607967377, 0.8960000425577164, 0.0, 0.0, 0.0, 0.0, 0.0, 1.708636542860585E9, 0.0, 2024-02-22 13:15:42.860
32.0, 449.68183077219874, -557.9968132888898, 138.11450536362827, -245.61792958993465, 0.03200000151991844, 0.12800000607967377, 0.8960000425577164, 0.0, 0.0, 0.0, 0.0, 0.0, 1.708636542867115E9, 0.0, 2024-02-22 13:15:42.867
32.0, 563.4645470241085, -416.21720596868545, 256.21306616440415, -311.0156901651062, 0.03200000151991844, 0.12800000607967377, 0.8960000425577164, 0.0, 0.0, 0.0, 0.0, 0.0, 1.708636542867115E9, 0.0, 2024-02-22 13:15:42.867
33.0, 750.4352354588918, -200.09399737929925, 324.37087290687487, -187.40264687966555, 0.03200000151991844, 0.12800000607967377, 0.8960000425577164, 0.0, 0.0, 0.0, 0.0, 0.0, 1.708636542870746E9, 0.0, 2024-02-22 13:15:42.870
33.0, 948.2291943654418, -53.82838006224483, 283.50498609105125, -96.6184454052709, 0.03200000151991844, 0.12800000607967377, 0.8960000425577164, 0.0, 0.0, 0.0, 0.0, 0.0, 1.708636542870746E9, 0.0, 2024-02-22 13:15:42.870
34.0, 729.6900104046799, -267.90586337586865, 46.101746753789485, 20.455382807645947, 0.03200000151991844, 0.12800000607967377, 0.8960000425577164, 0.0, 0.0, 0.0, 0.0, 0.0, 1.708636542880794E9, 0.0, 2024-02-22 13:15:42.880
34.0, 936.9234767993912, -505.4119499619119, -186.43401279114187, 225.54588652774692, 0.03200000151991844, 0.12800000607967377, 0.8960000425577164, 0.0, 0.0, 0.0, 0.0, 0.0, 1.708636542880794E9, 0.0, 2024-02-22 13:15:42.880
35.0, 814.5801295489073, -651.6008993298747, -309.71981483045965, 267.86846437631175, 0.03200000151991844, 0.12800000607967377, 0.8960000425577164, 0.0, 0.0, 0.0, 0.0, 0.0, 1.708636542892771E9, 0.0, 2024-02-22 13:15:42.892
35.0, 633.4175057453103, -871.183515378274, -358.5198994022794, 170.40480158105493, 0.03200000151991844, 0.12800000607967377, 0.8960000425577164, 0.0, 0.0, 0.0, 0.0, 0.0, 1.708636542892771E9, 0.0, 2024-02-22 13:15:42.892
36.0, 415.390688078478, -1037.0312488633208, -348.0033007268794, 42.10940355109051, 0.03200000151991844, 0.12800000607967377, 0.8960000425577164, 0.0, 0.0, 0.0, 0.0, 0.0, 1.708636542897775E9, 0.0, 2024-02-22 13:15:42.897
36.0, 628.2414842066355, -813.776051058434, -578.2577212988399, -56.306063782889396, 0.03200000151991844, 0.12800000607967377, 0.8960000425577164, 0.0, 0.0, 0.0, 0.0, 0.0, 1.708636542897775E9, 0.0, 2024-02-22 13:15:42.897
37.0, 440.64249257929623, -1051.82629308803, -341.56693290313706, -257.43601344991475, 0.03200000151991844, 0.12800000607967377, 0.8960000425577164, 0.0, 0.0, 0.0, 0.0, 0.0, 1.708636542909793E9, 0.0, 2024-02-22 13:15:42.909
37.0, 548.1459168056026, -917.3768896809779, -233.21455138688907, -327.661984867882, 0.03200000151991844, 0.12800000607967377, 0.8960000425577164, 0.0, 0.0, 0.0, 0.0, 0.0, 1.708636542909793E9, 0.0, 2024-02-22 13:15:42.909
38.0, 740.4983212766238, -693.145577987656, -160.7409000955522, -196.1315733762458, 0.03200000151991844, 0.12800000607967377, 0.8960000425577164, 0.0, 0.0, 0.0, 0.0, 0.0, 1.708636542925904E9, 0.0, 2024-02-22 13:15:42.925
38.0, 970.4703794019297, -509.98210770776495, -178.28477078769356, -79.05213531339541, 0.03200000151991844, 0.12800000607967377, 0.8960000425577164, 0.0, 0.0, 0.0, 0.0, 0.0, 1.708636542925904E9, 0.0, 2024-02-22 13:15:42.925
39.0, 764.7291330895387, -724.2877249186859, -415.72166922455654, 40.46384757058695, 0.03200000151991844, 0.12800000607967377, 0.8960000425577164, 0.0, 0.0, 0.0, 0.0, 0.0, 1.708636542933785E9, 0.0, 2024-02-22 13:15:42.933
39.0, 951.8494175225496, -479.5393220684491, -650.5799066419713, 237.49860678613186, 0.03200000151991844, 0.12800000607967377, 0.8960000425577164, 0.0, 0.0, 0.0, 0.0, 0.0, 1.708636542933785E9, 0.0, 2024-02-22 13:15:42.933
40.0, 855.7713876608759, -598.9019690542482, -762.1934809195809, 304.77005723910406, 0.03200000151991844, 0.12800000607967377, 0.9600000455975533, 0.0, 0.0, 0.0, 0.0, 0.0, 1.708636542940788E9, 0.0, 2024-02-22 13:15:42.940
40.0, 689.250472183805, -799.9496409222484, -799.3549968292937, 215.79970724321902, 0.03200000151991844, 0.12800000607967377, 0.9600000455975533, 0.0, 0.0, 0.0, 0.0, 0.0, 1.708636542940788E9, 0.0, 2024-02-22 13:15:42.940
41.0, 453.2870943294838, -980.9177899281494, -793.5731114977971, 78.48741042008623, 0.03200000151991844, 0.12800000607967377, 0.9600000455975533, 0.0, 0.0, 0.0, 0.0, 0.0, 1.708636542952622E9, 0.0, 2024-02-22 13:15:42.952
41.0, 680.5888638864271, -756.1105336416513, -1032.0403523724526, -19.52040781872347, 0.03200000151991844, 0.12800000607967377, 0.9600000455975533, 0.0, 0.0, 0.0, 0.0, 0.0, 1.708636542952622E9, 0.0, 2024-02-22 13:15:42.952
42.0, 524.0460014911368, -968.8416529712267, -1267.820475128945, -207.2502959445119, 0.03200000151991844, 0.12800000607967377, 0.9600000455975533, 0.0, 0.0, 0.0, 0.0, 0.0, 1.708636542959784E9, 0.0, 2024-02-22 13:15:42.959
42.0, 611.0884330598637, -849.3892483864911, -1166.716019726824, -277.68944165995345, 0.03200000151991844, 0.12800000607967377, 0.9600000455975533, 0.0, 0.0, 0.0, 0.0, 0.0, 1.708636542959784E9, 0.0, 2024-02-22 13:15:42.959
43.0, 790.9121726793237, -633.494173694402, -1108.6821221644059, -152.89458998851478, 0.03200000151991844, 0.12800000607967377, 0.9600000455975533, 0.0, 0.0, 0.0, 0.0, 0.0, 1.708636542968889E9, 0.0, 2024-02-22 13:15:42.968
43.0, 548.5741353505291, -431.39185003889725, -1112.7773126158863, -28.892597107682377, 0.03200000151991844, 0.12800000607967377, 0.9600000455975533, 0.0, 0.0, 0.0, 0.0, 0.0, 1.708636542968889E9, 0.0, 2024-02-22 13:15:42.968
44.0, 358.9817770468071, -629.5336196413264, -1339.3722410812043, 106.38332418957725, 0.03200000151991844, 0.12800000607967377, 0.9600000455975533, 0.0, 0.0, 0.0, 0.0, 0.0, 1.708636542983447E9, 0.0, 2024-02-22 13:15:42.983
44.0, 526.2020538155921, -403.96716366382316, -1101.1462237536907, 294.42362401168793, 0.03200000151991844, 0.12800000607967377, 0.9600000455975533, 0.0, 0.0, 0.0, 0.0, 0.0, 1.708636542983447E9, 0.0, 2024-02-22 13:15:42.983
45.0, 449.1264556287788, -505.13519736519083, -1194.0640381528065, 365.5546512189321, 0.03200000151991844, 0.12800000607967377, 0.9600000455975533, 0.0, 0.0, 0.0, 0.0, 0.0, 1.708636542989809E9, 0.0, 2024-02-22 13:15:42.989
45.0, 288.8848321773112, -704.0286868587136, -1233.53307233518, 281.88747936021537, 0.03200000151991844, 0.12800000607967377, 0.9600000455975533, 0.0, 0.0, 0.0, 0.0, 0.0, 1.708636542989809E9, 0.0, 2024-02-22 13:15:42.989
46.0, 520.2163439365104, -913.8950428222306, -1250.2298556873575, 125.53161196270958, 0.03200000151991844, 0.12800000607967377, 0.9600000455975533, 0.0, 0.0, 0.0, 0.0, 0.0, 1.708636542997119E9, 0.0, 2024-02-22 13:15:42.997
46.0, 722.0680942949839, -708.269733408466, -1012.5610834532417, 21.18092339904979, 0.03200000151991844, 0.12800000607967377, 0.9600000455975533, 0.0, 0.0, 0.0, 0.0, 0.0, 1.708636542997119E9, 0.0, 2024-02-22 13:15:42.997
47.0, 571.0041853347793, -918.36422326928, -1239.814234310761, -163.07085776794702, 0.03200000151991844, 0.12800000607967377, 0.9600000455975533, 0.0, 0.0, 0.0, 0.0, 0.0, 1.70863654301412E9, 0.0, 2024-02-22 13:15:43.014
47.0, 661.0048777684569, -793.8292946447618, -1143.306115954183, -237.2050246396102, 0.03200000151991844, 0.12800000607967377, 0.9600000455975533, 0.0, 0.0, 0.0, 0.0, 0.0, 1.70863654301412E9, 0.0, 2024-02-22 13:15:43.014
48.0, 806.4215377955697, -613.2837543338537, -1106.0062237461098, -136.8803383782506, 0.03200000151991844, 0.12800000607967377, 0.9600000455975533, 0.0, 0.0, 0.0, 0.0, 0.0, 1.708636543021137E9, 0.0, 2024-02-22 13:15:43.021
48.0, 575.0227078371681, -411.3272867766209, -1108.6989517142065, -12.552974201273173, 0.03200000151991844, 0.12800000607967377, 0.9600000455975533, 0.0, 0.0, 0.0, 0.0, 0.0, 1.708636543021137E9, 0.0, 2024-02-22 13:15:43.021
49.0, 389.6377369835973, -595.0180829502642, -1330.8546189321205, 125.73730646027252, 0.03200000151991844, 0.12800000607967377, 0.9600000455975533, 0.0, 0.0, 0.0, 0.0, 0.0, 1.708636543026991E9, 0.0, 2024-02-22 13:15:43.026
49.0, 514.5148664540611, -416.5107881152071, -1121.717543459963, 287.52350859344006, 0.03200000151991844, 0.12800000607967377, 0.9600000455975533, 0.0, 0.0, 0.0, 0.0, 0.0, 1.708636543026991E9, 0.0, 2024-02-22 13:15:43.026
50.0, 419.2970135821961, -553.8885331875645, -1232.7439534445293, 338.661030637566, 0.03200000151991844, 0.12800000607967377, 0.9760000463575125, 0.0, 0.0, 0.0, 0.0, 0.0, 1.708636543043791E9, 0.0, 2024-02-22 13:15:43.043
50.0, 291.1474716505036, -717.4736271994188, -1254.7887937333435, 269.9459788016975, 0.03200000151991844, 0.12800000607967377, 0.9760000463575125, 0.0, 0.0, 0.0, 0.0, 0.0, 1.708636543043791E9, 0.0, 2024-02-22 13:15:43.043
51.0, 506.2141585024074, -931.9138808087446, -1277.6900711120106, 112.77107331389561, 0.03200000151991844, 0.144000006839633, 0.9760000463575125, 0.0, 0.0, 0.0, 0.0, 0.0, 1.708636543048772E9, 0.0, 2024-02-22 13:15:43.048
51.0, 684.8972286353819, -756.3461473388597, -1051.8132034381852, -10.223016528878361, 0.03200000151991844, 0.144000006839633, 0.9760000463575125, 0.0, 0.0, 0.0, 0.0, 0.0, 1.708636543048772E9, 0.0, 2024-02-22 13:15:43.048
52.0, 551.0181599715725, -952.9470781595446, -1274.3353808517568, -180.99619825556874, 0.03200000151991844, 0.144000006839633, 0.9760000463575125, 0.0, 0.0, 0.0, 0.0, 0.0, 1.708636543057571E9, 0.0, 2024-02-22 13:15:43.057
52.0, 634.6049239812419, -823.520360392984, -1174.1958196382038, -261.30493995407596, 0.03200000151991844, 0.144000006839633, 0.9760000463575125, 0.0, 0.0, 0.0, 0.0, 0.0, 1.708636543057571E9, 0.0, 2024-02-22 13:15:43.057
53.0, 749.6984751676209, -684.0950200948864, -1151.9565045516938, -177.5704498961568, 0.03200000151991844, 0.144000006839633, 0.9760000463575125, 0.0, 0.0, 0.0, 0.0, 0.0, 1.708636543072653E9, 0.0, 2024-02-22 13:15:43.072
53.0, 522.3761361609213, -481.15495884930715, -1149.1160505353473, -48.63178907381371, 0.03200000151991844, 0.144000006839633, 0.9760000463575125, 0.0, 0.0, 0.0, 0.0, 0.0, 1.708636543072653E9, 0.0, 2024-02-22 13:15:43.072
54.0, 348.3791606724262, -654.8490024413913, -1368.2685780888423, 85.26784903975204, 0.03200000151991844, 0.144000006839633, 0.9760000463575125, 0.0, 0.0, 0.0, 0.0, 0.0, 1.708636543077783E9, 0.0, 2024-02-22 13:15:43.077
54.0, 457.3056168318726, -486.20008388953283, -1159.1988208158873, 238.5233393739909, 0.03200000151991844, 0.144000006839633, 0.9760000463575125, 0.0, 0.0, 0.0, 0.0, 0.0, 1.708636543077783E9, 0.0, 2024-02-22 13:15:43.077
55.0, 362.50289285508916, -619.7631310070865, -1269.4398518097587, 295.28567095147446, 0.03200000151991844, 0.144000006839633, 0.9760000463575125, 0.0, 0.0, 0.0, 0.0, 0.0, 1.708636543088776E9, 0.0, 2024-02-22 13:15:43.088
55.0, 258.03813734278083, -763.4145582551137, -1276.4577740766108, 235.60621740855277, 0.03200000151991844, 0.144000006839633, 0.9760000463575125, 0.0, 0.0, 0.0, 0.0, 0.0, 1.708636543088776E9, 0.0, 2024-02-22 13:15:43.088
56.0, 458.71368916518986, -990.7986056110822, -1305.7094015800394, 68.25130424136296, 0.03200000151991844, 0.144000006839633, 0.9760000463575125, 0.0, 0.0, 0.0, 0.0, 0.0, 1.708636543102763E9, 0.0, 2024-02-22 13:15:43.102
56.0, 636.8357743048109, -813.3347428636625, -1078.2692557247356, -56.26118498342112, 0.03200000151991844, 0.144000006839633, 0.9760000463575125, 0.0, 0.0, 0.0, 0.0, 0.0, 1.708636543102763E9, 0.0, 2024-02-22 13:15:43.102
57.0, 537.105732136406, -970.4759892518632, -1279.7619756874628, -211.09117319900542, 0.03200000151991844, 0.144000006839633, 0.9760000463575125, 0.0, 0.0, 0.0, 0.0, 0.0, 1.708636543108096E9, 0.0, 2024-02-22 13:15:43.108
57.0, 612.412357644178, -854.0977824307047, -1186.870340588037, -288.28457823442295, 0.03200000151991844, 0.144000006839633, 0.9760000463575125, 0.0, 0.0, 0.0, 0.0, 0.0, 1.708636543108096E9, 0.0, 2024-02-22 13:15:43.108
58.0, 720.415058514569, -717.1482559032738, -1165.3079473935068, -211.1771908979863, 0.03200000151991844, 0.144000006839633, 0.9760000463575125, 0.0, 0.0, 0.0, 0.0, 0.0, 1.708636543119127E9, 0.0, 2024-02-22 13:15:43.119
58.0, 522.6080099581741, -485.366086199414, -1148.3082321449183, -72.14827999519184, 0.03200000151991844, 0.144000006839633, 0.9760000463575125, 0.0, 0.0, 0.0, 0.0, 0.0, 1.708636543119127E9, 0.0, 2024-02-22 13:15:43.119
59.0, 349.14584016334265, -653.4839389575645, -1360.6466619791463, 76.92787213856354, 0.03200000151991844, 0.144000006839633, 0.9760000463575125, 0.0, 0.0, 0.0, 0.0, 0.0, 1.70863654313276E9, 0.0, 2024-02-22 13:15:43.132
59.0, 444.4179215845652, -492.6289719133638, -1164.0307715586387, 225.6992224259302, 0.03200000151991844, 0.144000006839633, 0.9760000463575125, 0.0, 0.0, 0.0, 0.0, 0.0, 1.70863654313276E9, 0.0, 2024-02-22 13:15:43.132
60.0, 379.1192683582194, -597.2601529737003, -1254.2259387900122, 291.69910689396784, 0.03200000151991844, 0.144000006839633, 0.9920000471174717, 0.0, 0.0, 0.0, 0.0, 0.0, 1.708636543137772E9, 0.0, 2024-02-22 13:15:43.137
60.0, 287.6544050918892, -729.6582212550566, -1246.6115024802275, 246.10411658417434, 0.03200000151991844, 0.144000006839633, 0.9920000471174717, 0.0, 0.0, 0.0, 0.0, 0.0, 1.708636543137772E9, 0.0, 2024-02-22 13:15:43.137
61.0, 473.50125358998775, -969.2455621664412, -1285.7850845661014, 74.22766437055543, 0.03200000151991844, 0.144000006839633, 0.9920000471174717, 0.0, 0.0, 0.0, 0.0, 0.0, 1.708636543148768E9, 0.0, 2024-02-22 13:15:43.148
61.0, 656.7507415688597, -772.5099949473515, -1055.3904177458026, -39.58497108099982, 0.03200000151991844, 0.144000006839633, 0.9920000471174717, 0.0, 0.0, 0.0, 0.0, 0.0, 1.708636543148768E9, 0.0, 2024-02-22 13:15:43.148
62.0, 590.7845162004232, -908.7788596828468, -1229.1143805375323, -179.24218517635018, 0.03200000151991844, 0.144000006839633, 0.9920000471174717, 0.0, 0.0, 0.0, 0.0, 0.0, 1.708636543164793E9, 0.0, 2024-02-22 13:15:43.164
62.0, 668.372480681166, -794.6483327350579, -1145.2396442312747, -248.96327010029927, 0.03200000151991844, 0.144000006839633, 0.9920000471174717, 0.0, 0.0, 0.0, 0.0, 0.0, 1.708636543164793E9, 0.0, 2024-02-22 13:15:43.164
63.0, 777.7327652354725, -641.5910570984706, -1125.9361506099813, -168.20948030706495, 0.03200000151991844, 0.144000006839633, 0.9920000471174717, 0.0, 0.0, 0.0, 0.0, 0.0, 1.708636543168873E9, 0.0, 2024-02-22 13:15:43.168
63.0, 611.374535406474, -866.781653130427, -1084.8776589464396, -3.465017308946699, 0.03200000151991844, 0.144000006839633, 0.9920000471174717, 0.0, 0.0, 0.0, 0.0, 0.0, 1.708636543168873E9, 0.0, 2024-02-22 13:15:43.168
64.0, 445.3622463233769, -1026.970917982515, -1289.7849075687118, 148.06824909569696, 0.03200000151991844, 0.144000006839633, 0.9920000471174717, 0.0, 0.0, 0.0, 0.0, 0.0, 1.708636543177771E9, 0.0, 2024-02-22 13:15:43.177
64.0, 529.7212996738963, -874.1642156429589, -1096.4563892092556, 291.5065020462498, 0.03200000151991844, 0.144000006839633, 0.9920000471174717, 0.0, 0.0, 0.0, 0.0, 0.0, 1.708636543177771E9, 0.0, 2024-02-22 13:15:43.177
65.0, 489.8913651457988, -956.958120862022, -1169.5452540433034, 369.4815461724065, 0.03200000151991844, 0.144000006839633, 0.9920000471174717, 0.0, 0.0, 0.0, 0.0, 0.0, 1.708636543193501E9, 0.0, 2024-02-22 13:15:43.193
65.0, 417.9001609487459, -1073.4616143316962, -1162.880752322264, 335.2371522281319, 0.03200000151991844, 0.144000006839633, 0.9920000471174717, 0.0, 0.0, 0.0, 0.0, 0.0, 1.708636543193501E9, 0.0, 2024-02-22 13:15:43.193
66.0, 569.549364252016, -846.0532576260157, -1215.2786206514575, 154.459738119971, 0.03200000151991844, 0.144000006839633, 0.9920000471174717, 0.0, 0.0, 0.0, 0.0, 0.0, 1.708636543200384E9, 0.0, 2024-02-22 13:15:43.200
66.0, 732.378998472821, -694.2525883745402, -1004.0733805038035, 13.173797593917698, 0.03200000151991844, 0.144000006839633, 0.9920000471174717, 0.0, 0.0, 0.0, 0.0, 0.0, 1.708636543200384E9, 0.0, 2024-02-22 13:15:43.200
67.0, 676.6750585827976, -816.6277247746475, -1186.2270777956583, -120.27144267503172, 0.03200000151991844, 0.144000006839633, 0.9920000471174717, 0.0, 0.0, 0.0, 0.0, 0.0, 1.70863654320701E9, 0.0, 2024-02-22 13:15:43.207
67.0, 722.754365936853, -724.3531731679104, -1110.0640151980333, -204.12934943148866, 0.03200000151991844, 0.144000006839633, 0.9920000471174717, 0.0, 0.0, 0.0, 0.0, 0.0, 1.70863654320701E9, 0.0, 2024-02-22 13:15:43.207
68.0, 801.533488553483, -624.219221804291, -1120.1804445781745, -156.21188124921173, 0.03200000151991844, 0.144000006839633, 0.9920000471174717, 0.0, 0.0, 0.0, 0.0, 0.0, 1.708636543223896E9, 0.0, 2024-02-22 13:15:43.223
68.0, 617.9044007291086, -380.66384703991935, -1094.8669317280874, -2.649719118606299, 0.03200000151991844, 0.144000006839633, 0.9920000471174717, 0.0, 0.0, 0.0, 0.0, 0.0, 1.708636543223896E9, 0.0, 2024-02-22 13:15:43.223
69.0, 461.473735332489, -532.9731426853687, -1293.6257848232053, 153.2405307344161, 0.03200000151991844, 0.144000006839633, 0.9920000471174717, 0.0, 0.0, 0.0, 0.0, 0.0, 1.708636543237741E9, 0.0, 2024-02-22 13:15:43.237
69.0, 515.6106571410783, -416.1480178195052, -1123.9783129831776, 279.59866058733314, 0.03200000151991844, 0.144000006839633, 0.9920000471174717, 0.0, 0.0, 0.0, 0.0, 0.0, 1.708636543237741E9, 0.0, 2024-02-22 13:15:43.237
70.0, 450.9403071072884, -524.9753666301258, -1221.8514948235825, 337.38946465263143, 0.03200000151991844, 0.144000006839633, 1.008000047877431, 0.0, 0.0, 0.0, 0.0, 0.0, 1.708636543242796E9, 0.0, 2024-02-22 13:15:43.242
70.0, 384.9666019389406, -630.9809609241784, -1202.5797903519124, 315.57275826111436, 0.03200000151991844, 0.144000006839633, 1.008000047877431, 0.0, 0.0, 0.0, 0.0, 0.0, 1.708636543242796E9, 0.0, 2024-02-22 13:15:43.242
71.0, 532.9507032856345, -420.15158072207123, -1263.4111330811866, 126.15991515526548, 0.03200000151991844, 0.144000006839633, 1.008000047877431, 0.0, 0.0, 0.0, 0.0, 0.0, 1.708636543253782E9, 0.0, 2024-02-22 13:15:43.253
71.0, 686.740999313537, -272.6742358193733, -1076.3394673475996, -24.831065755803138, 0.03200000151991844, 0.144000006839633, 1.008000047877431, 0.0, 0.0, 0.0, 0.0, 0.0, 1.708636543253782E9, 0.0, 2024-02-22 13:15:43.253
72.0, 643.5171055756509, -376.5106881391257, -1235.750833008904, -146.95188895892352, 0.03200000151991844, 0.144000006839633, 1.008000047877431, 0.0, 0.0, 0.0, 0.0, 0.0, 1.708636543267759E9, 0.0, 2024-02-22 13:15:43.267
72.0, 716.2581597138196, -248.77814505249262, -1139.2875934517942, -213.54267761996016, 0.03200000151991844, 0.144000006839633, 1.008000047877431, 0.0, 0.0, 0.0, 0.0, 0.0, 1.708636543267759E9, 0.0, 2024-02-22 13:15:43.267
73.0, 772.6352815958671, -172.75532870320603, -1155.0998904644512, -183.2027392294258, 0.03200000151991844, 0.144000006839633, 1.008000047877431, 0.0, 0.0, 0.0, 0.0, 0.0, 1.7086365432733E9, 0.0, 2024-02-22 13:15:43.273
73.0, 573.0480406605639, 50.148318505845964, -1149.409632681869, -42.9284416413866, 0.03200000151991844, 0.144000006839633, 1.008000047877431, 0.0, 0.0, 0.0, 0.0, 0.0, 1.7086365432733E9, 0.0, 2024-02-22 13:15:43.273
74.0, 372.19858349021524, -155.80984200397506, -1371.9953883946873, 99.27377437381074, 0.03200000151991844, 0.144000006839633, 1.008000047877431, 0.0, 0.0, 0.0, 0.0, 0.0, 1.708636543284766E9, 0.0, 2024-02-22 13:15:43.284
74.0, 377.1296415817924, -88.39627535268664, -1235.4909099619836, 192.6871255170554, 0.03200000151991844, 0.144000006839633, 1.008000047877431, 0.0, 0.0, 0.0, 0.0, 0.0, 1.708636543284766E9, 0.0, 2024-02-22 13:15:43.284
75.0, 318.41321227746084, -195.39855298493057, -1339.4563888302073, 248.92587110074237, 0.03200000151991844, 0.144000006839633, 1.008000047877431, 0.0, 0.0, 0.0, 0.0, 0.0, 1.708636543291228E9, 0.0, 2024-02-22 13:15:43.291
75.0, 264.29498996865004, -286.73625965276733, -1296.6906328368932, 230.58353176806122, 0.03200000151991844, 0.144000006839633, 1.008000047877431, 0.0, 0.0, 0.0, 0.0, 0.0, 1.708636543291228E9, 0.0, 2024-02-22 13:15:43.291
76.0, 389.4806611854583, -93.29741424461827, -1360.831787026953, 38.55275869322941, 0.03200000151991844, 0.144000006839633, 1.008000047877431, 0.0, 0.0, 0.0, 0.0, 0.0, 1.708636543296989E9, 0.0, 2024-02-22 13:15:43.296
76.0, 551.2631234186701, 62.29177366197109, -1163.0565276201814, -122.30781820090488, 0.03200000151991844, 0.144000006839633, 1.008000047877431, 0.0, 0.0, 0.0, 0.0, 0.0, 1.708636543296989E9, 0.0, 2024-02-22 13:15:43.296
77.0, 531.8848317982629, -16.865078850183636, -1306.2666466734372, -227.0381066100672, 0.03200000151991844, 0.144000006839633, 1.008000047877431, 0.0, 0.0, 0.0, 0.0, 0.0, 1.708636543314076E9, 0.0, 2024-02-22 13:15:43.314
77.0, 557.3984292959794, 62.23754511261359, -1224.643330140505, -308.10978789953515, 0.03200000151991844, 0.144000006839633, 1.008000047877431, 0.0, 0.0, 0.0, 0.0, 0.0, 1.708636543314076E9, 0.0, 2024-02-22 13:15:43.314
78.0, 613.7456319783814, 139.81989974342287, -1250.5084782340564, -276.86105381976813, 0.03200000151991844, 0.144000006839633, 1.008000047877431, 0.0, 0.0, 0.0, 0.0, 0.0, 1.708636543318869E9, 0.0, 2024-02-22 13:15:43.318
78.0, 485.5867402967997, -50.64946509990841, -1190.9150423901156, -108.71328186197206, 0.03200000151991844, 0.144000006839633, 1.008000047877431, 0.0, 0.0, 0.0, 0.0, 0.0, 1.708636543318869E9, 0.0, 2024-02-22 13:15:43.318
79.0, 320.87593639828265, -216.47101928526536, -1384.9317023414187, 65.5323969735764, 0.03200000151991844, 0.144000006839633, 1.008000047877431, 0.0, 0.0, 0.0, 0.0, 0.0, 1.708636543327498E9, 0.0, 2024-02-22 13:15:43.327
79.0, 318.2991453288123, -142.75946110859513, -1241.1231992952526, 164.80243144743145, 0.03200000151991844, 0.144000006839633, 1.008000047877431, 0.0, 0.0, 0.0, 0.0, 0.0, 1.708636543327498E9, 0.0, 2024-02-22 13:15:43.327
80.0, 298.8105266597122, -213.6941435681656, -1321.5647074421868, 232.61616739397869, 0.03200000151991844, 0.144000006839633, 1.008000047877431, 0.0, 0.0, 0.0, 0.0, 0.0, 1.708636543344751E9, 0.0, 2024-02-22 13:15:43.344
80.0, 252.70317005598918, -278.38506305171177, -1271.5285859350115, 237.17510543996468, 0.03200000151991844, 0.144000006839633, 1.008000047877431, 0.0, 0.0, 0.0, 0.0, 0.0, 1.708636543344751E9, 0.0, 2024-02-22 13:15:43.344
81.0, 363.8567366390489, -102.93513643043116, -1345.7824296052568, 33.14299340732396, 0.03200000151991844, 0.144000006839633, 1.008000047877431, 0.0, 0.0, 0.0, 0.0, 0.0, 1.708636543349096E9, 0.0, 2024-02-22 13:15:43.349
81.0, 545.3783908383921, 67.44909570086747, -1135.8076165430248, -131.6145592406392, 0.03200000151991844, 0.144000006839633, 1.008000047877431, 0.0, 0.0, 0.0, 0.0, 0.0, 1.708636543349096E9, 0.0, 2024-02-22 13:15:43.349
82.0, 544.909033393953, 11.621739112306386, -1268.1234070253558, -218.29609046364203, 0.03200000151991844, 0.144000006839633, 1.008000047877431, 0.0, 0.0, 0.0, 0.0, 0.0, 1.708636543359127E9, 0.0, 2024-02-22 13:15:43.359
82.0, 560.8746663047932, 76.63615994201973, -1195.3412139876746, -301.12178483232856, 0.03200000151991844, 0.144000006839633, 1.008000047877431, 0.0, 0.0, 0.0, 0.0, 0.0, 1.708636543359127E9, 0.0, 2024-02-22 13:15:43.359
83.0, 615.5501337070018, 159.2972987126559, -1223.8429915499873, -277.6670022602193, 0.03200000151991844, 0.144000006839633, 1.008000047877431, 0.0, 0.0, 0.0, 0.0, 0.0, 1.708636543373427E9, 0.0, 2024-02-22 13:15:43.373
83.0, 505.675612908788, -9.009418993256986, -1153.691818131134, -93.83034998830408, 0.03200000151991844, 0.144000006839633, 1.008000047877431, 0.0, 0.0, 0.0, 0.0, 0.0, 1.708636543373427E9, 0.0, 2024-02-22 13:15:43.373
84.0, 344.9702418628149, -162.33970732660964, -1337.132041007746, 79.41677555907518, 0.03200000151991844, 0.144000006839633, 1.008000047877431, 0.0, 0.0, 0.0, 0.0, 0.0, 1.708636543379762E9, 0.0, 2024-02-22 13:15:43.379
84.0, 335.05576708028093, -109.76980359945446, -1203.8102174373344, 166.74530947441235, 0.03200000151991844, 0.144000006839633, 1.008000047877431, 0.0, 0.0, 0.0, 0.0, 0.0, 1.708636543379762E9, 0.0, 2024-02-22 13:15:43.379
85.0, 321.48367014108226, -166.3021313296631, -1272.9834070177749, 240.72240054793656, 0.03200000151991844, 0.144000006839633, 1.008000047877431, 0.0, 0.0, 0.0, 0.0, 0.0, 1.708636543389772E9, 0.0, 2024-02-22 13:15:43.389
85.0, 301.1367444321513, -226.7220850638114, -1219.9067468466237, 247.6000765664503, 0.03200000151991844, 0.144000006839633, 1.008000047877431, 0.0, 0.0, 0.0, 0.0, 0.0, 1.708636543389772E9, 0.0, 2024-02-22 13:15:43.389
86.0, 400.46474735531956, -53.79659091262147, -1299.7779202503152, 40.13099647453055, 0.03200000151991844, 0.144000006839633, 1.008000047877431, 0.0, 0.0, 0.0, 0.0, 0.0, 1.708636543403547E9, 0.0, 2024-02-22 13:15:43.403
86.0, 569.4352973033674, 103.52043077349663, -1096.5461468081921, -117.99197365203872, 0.03200000151991844, 0.144000006839633, 1.008000047877431, 0.0, 0.0, 0.0, 0.0, 0.0, 1.708636543403547E9, 0.0, 2024-02-22 13:15:43.403
87.0, 596.3850163840689, 72.22307799430564, -1220.8174124858342, -194.0933279003948, 0.03200000151991844, 0.144000006839633, 1.008000047877431, 0.0, 0.0, 0.0, 0.0, 0.0, 1.708636543409751E9, 0.0, 2024-02-22 13:15:43.409
87.0, 609.7962976251729, 124.15532877901569, -1155.6533956578933, -287.95920693827793, 0.03200000151991844, 0.144000006839633, 1.008000047877431, 0.0, 0.0, 0.0, 0.0, 0.0, 1.708636543409751E9, 0.0, 2024-02-22 13:15:43.409
88.0, 637.6679020449519, 186.52751029003412, -1192.1959581249394, -271.9094262784347, 0.03200000151991844, 0.144000006839633, 1.008000047877431, 0.0, 0.0, 0.0, 0.0, 0.0, 1.708636543417859E9, 0.0, 2024-02-22 13:15:43.417
88.0, 541.399137285538, 32.806402411311865, -1122.0373049061745, -79.81507490435615, 0.03200000151991844, 0.144000006839633, 1.008000047877431, 0.0, 0.0, 0.0, 0.0, 0.0, 1.708636543417859E9, 0.0, 2024-02-22 13:15:43.417
89.0, 386.62898746924475, -117.37489015934989, -1315.0591514692642, 97.96106948936358, 0.03200000151991844, 0.144000006839633, 1.008000047877431, 0.0, 0.0, 0.0, 0.0, 0.0, 1.708636543433757E9, 0.0, 2024-02-22 13:15:43.433
89.0, 364.87398942699656, -86.71706027258188, -1202.2207599561661, 172.83947645220906, 0.03200000151991844, 0.144000006839633, 1.008000047877431, 0.0, 0.0, 0.0, 0.0, 0.0, 1.708636543433757E9, 0.0, 2024-02-22 13:15:43.433
90.0, 337.56523995054886, -160.38560959976166, -1282.6024297038093, 246.64079222781584, 0.03200000151991844, 0.144000006839633, 1.008000047877431, 0.0, 0.0, 0.0, 0.0, 0.0, 1.7086365434402E9, 0.0, 2024-02-22 13:15:43.440
90.0, 321.90814878605306, -197.64810280827805, -1221.230671430938, 258.42147708823904, 0.03200000151991844, 0.144000006839633, 1.008000047877431, 0.0, 0.0, 0.0, 0.0, 0.0, 1.7086365434402E9, 0.0, 2024-02-22 13:15:43.440
91.0, 409.758398745209, -58.43406685767695, -1324.1807674611919, 35.28221618197858, 0.03200000151991844, 0.144000006839633, 1.008000047877431, 0.0, 0.0, 0.0, 0.0, 0.0, 1.708636543448742E9, 0.0, 2024-02-22 13:15:43.448
91.0, 557.4975366448052, 89.22279324289411, -1126.3568893549964, -128.79467467404902, 0.03200000151991844, 0.144000006839633, 1.008000047877431, 0.0, 0.0, 0.0, 0.0, 0.0, 1.708636543448742E9, 0.0, 2024-02-22 13:15:43.448
92.0, 590.5245931535028, 72.14080019528046, -1236.9363812948577, -192.68151566712186, 0.03200000151991844, 0.144000006839633, 1.008000047877431, 0.0, 0.0, 0.0, 0.0, 0.0, 1.708636543463507E9, 0.0, 2024-02-22 13:15:43.463
92.0, 596.8038851791061, 103.89629071904346, -1185.2547038071789, -302.89823731128126, 0.03200000151991844, 0.144000006839633, 1.008000047877431, 0.0, 0.0, 0.0, 0.0, 0.0, 1.708636543463507E9, 0.0, 2024-02-22 13:15:43.463
93.0, 603.7806685464457, 139.42347034811974, -1240.5453847520985, -295.16973405284807, 0.03200000151991844, 0.144000006839633, 1.008000047877431, 0.0, 0.0, 0.0, 0.0, 0.0, 1.708636543471849E9, 0.0, 2024-02-22 13:15:43.471
93.0, 503.7907033311203, -0.6956213917583227, -1147.7378974016756, -88.20554045494646, 0.03200000151991844, 0.144000006839633, 1.008000047877431, 0.0, 0.0, 0.0, 0.0, 0.0, 1.708636543471849E9, 0.0, 2024-02-22 13:15:43.471
94.0, 361.4519809675403, -145.28950342861935, -1336.0325104207732, 86.18599447887391, 0.03200000151991844, 0.144000006839633, 1.008000047877431, 0.0, 0.0, 0.0, 0.0, 0.0, 1.708636543479753E9, 0.0, 2024-02-22 13:15:43.479
94.0, 326.6858709794469, -128.6151594761759, -1225.1800057841465, 155.0880413125269, 0.03200000151991844, 0.144000006839633, 1.008000047877431, 0.0, 0.0, 0.0, 0.0, 0.0, 1.708636543479753E9, 0.0, 2024-02-22 13:15:43.479
95.0, 298.4496263139881, -186.62848758883774, -1290.2505251131952, 244.02847210876644, 0.03200000151991844, 0.144000006839633, 1.008000047877431, 0.0, 0.0, 0.0, 0.0, 0.0, 1.7086365434934E9, 0.0, 2024-02-22 13:15:43.493
95.0, 291.3531661480665, -227.33916855650023, -1226.0850615734234, 259.4518195260316, 0.03200000151991844, 0.144000006839633, 1.008000047877431, 0.0, 0.0, 0.0, 0.0, 0.0, 1.7086365434934E9, 0.0, 2024-02-22 13:15:43.493
96.0, 363.04704829864204, -109.86891094828025, -1345.6365735069849, 15.556113865692168, 0.03200000151991844, 0.144000006839633, 1.008000047877431, 0.0, 0.0, 0.0, 0.0, 0.0, 1.70863654349773E9, 0.0, 2024-02-22 13:15:43.497
96.0, 511.1115574943833, 47.45933043770492, -1134.12840146292, -125.96170045761392, 0.03200000151991844, 0.144000006839633, 1.008000047877431, 0.0, 0.0, 0.0, 0.0, 0.0, 1.70863654349773E9, 0.0, 2024-02-22 13:15:43.497
97.0, 564.494889461901, 60.115151887759566, -1226.2814063210972, -183.59542872477323, 0.03200000151991844, 0.144000006839633, 1.008000047877431, 0.0, 0.0, 0.0, 0.0, 0.0, 1.708636543509763E9, 0.0, 2024-02-22 13:15:43.509
97.0, 555.5920576173812, 71.68640235066414, -1192.513849621173, -302.9674254604615, 0.03200000151991844, 0.144000006839633, 1.008000047877431, 0.0, 0.0, 0.0, 0.0, 0.0, 1.708636543509763E9, 0.0, 2024-02-22 13:15:43.509
98.0, 574.2896874458529, 115.86397057725117, -1241.0502712461166, -285.1337125217542, 0.03200000151991844, 0.144000006839633, 1.008000047877431, 0.0, 0.0, 0.0, 0.0, 0.0, 1.70863654352285E9, 0.0, 2024-02-22 13:15:43.522
98.0, 500.4378830208443, 6.916944968048483, -1122.9348808955401, -59.65327424323186, 0.03200000151991844, 0.144000006839633, 1.008000047877431, 0.0, 0.0, 0.0, 0.0, 0.0, 1.70863654352285E9, 0.0, 2024-02-22 13:15:43.522
99.0, 336.8939279085025, -153.70988817885518, -1328.7060464075767, 94.60637922910973, 0.03200000151991844, 0.144000006839633, 1.008000047877431, 0.0, 0.0, 0.0, 0.0, 0.0, 1.70863654352874E9, 0.0, 2024-02-22 13:15:43.528
99.0, 288.2752284845337, -163.97965345717967, -1233.8116948818788, 156.03984585125, 0.03200000151991844, 0.144000006839633, 1.008000047877431, 0.0, 0.0, 0.0, 0.0, 0.0, 1.70863654352874E9, 0.0, 2024-02-22 13:15:43.528
100.0, 302.50741776591167, -165.39707554038614, -1255.181483228691, 280.5317656262778, 0.03200000151991844, 0.144000006839633, 1.008000047877431, 0.0, 0.0, 0.0, 0.0, 0.0, 1.708636543555755E9, 0.0, 2024-02-22 13:15:43.555
100.0, 311.4569983598776, -189.98504779906943, -1186.7450539395213, 294.6311884592287, 0.03200000151991844, 0.144000006839633, 1.008000047877431, 0.0, 0.0, 0.0, 0.0, 0.0, 1.708636543555755E9, 0.0, 2024-02-22 13:15:43.555
0.0, 857.2916569928639, 886.8686557924375, 642.1015534424223, 537.9528194763698, 0.03200000151991844, 0.144000006839633, 1.008000047877431, 0.0, 0.0, 0.0, 0.0, 0.0, 1.708636543559409E9, 0.0, 2024-02-22 13:15:43.559
1.0, 1026.6399368364364, 1063.6144577483647, 867.6567897200584, 407.93519751681015, 0.03200000151991844, 0.144000006839633, 1.008000047877431, 0.0, 0.0, 0.0, 0.0, 0.0, 1.708636543564748E9, 0.0, 2024-02-22 13:15:43.564
1.0, 1100.8021529577672, 1103.724884773139, 793.7806759453379, 363.77632879000157, 0.03200000151991844, 0.144000006839633, 1.008000047877431, 0.0, 0.0, 0.0, 0.0, 0.0, 1.708636543564748E9, 0.0, 2024-02-22 13:15:43.564
2.0, 1079.87928265566, 1101.8642845451832, 802.5918802409433, 220.8990608328022, 0.03200000151991844, 0.144000006839633, 1.008000047877431, 0.0, 0.0, 0.0, 0.0, 0.0, 1.708636543568832E9, 0.0, 2024-02-22 13:15:43.568
2.0, 1092.0956658609211, 1136.516327584628, 756.0824843919836, 243.93871450982988, 0.03200000151991844, 0.144000006839633, 1.008000047877431, 0.0, 0.0, 0.0, 0.0, 0.0, 1.708636543568832E9, 0.0, 2024-02-22 13:15:43.568
3.0, 1043.3460699385032, 1061.8454850693233, 892.1755738295615, 1.6679953802376986, 0.03200000151991844, 0.144000006839633, 1.008000047877431, 0.0, 0.0, 0.0, 0.0, 0.0, 1.708636543584742E9, 0.0, 2024-02-22 13:15:43.584
3.0, 895.2853006427176, 894.2773976046592, 680.843177083414, 158.87095011770725, 0.03200000151991844, 0.144000006839633, 1.008000047877431, 0.0, 0.0, 0.0, 0.0, 0.0, 1.708636543584742E9, 0.0, 2024-02-22 13:15:43.584
4.0, 817.6038386630826, 861.5981517918408, 760.6993908872828, 201.40296236379072, 0.03200000151991844, 0.144000006839633, 1.008000047877431, 0.0, 0.0, 0.0, 0.0, 0.0, 1.708636543588743E9, 0.0, 2024-02-22 13:15:43.588
4.0, 859.2756739193574, 875.983676971402, 746.8243620516732, 342.2270252453163, 0.03200000151991844, 0.144000006839633, 1.008000047877431, 0.0, 0.0, 0.0, 0.0, 0.0, 1.708636543588743E9, 0.0, 2024-02-22 13:15:43.588
5.0, 871.1012375792488, 862.536866680719, 819.516797490418, 355.4363518888131, 0.03200000151991844, 0.144000006839633, 1.008000047877431, 0.0, 0.0, 0.0, 0.0, 0.0, 1.708636543599081E9, 0.0, 2024-02-22 13:15:43.599
5.0, 911.4734576009214, 932.8956045471132, 668.060199034866, 575.7052395790815, 0.03200000151991844, 0.144000006839633, 1.008000047877431, 0.0, 0.0, 0.0, 0.0, 0.0, 1.708636543599081E9, 0.0, 2024-02-22 13:15:43.599
6.0, 1087.635835163761, 1110.224830896128, 891.2256392408162, 448.0287949917838, 0.03200000151991844, 0.144000006839633, 1.008000047877431, 0.0, 0.0, 0.0, 0.0, 0.0, 1.708636543605739E9, 0.0, 2024-02-22 13:15:43.605
6.0, 1178.885654182639, 1165.6015295400284, 837.6721418253146, 425.12377771316096, 0.03200000151991844, 0.144000006839633, 1.008000047877431, 0.0, 0.0, 0.0, 0.0, 0.0, 1.708636543605739E9, 0.0, 2024-02-22 13:15:43.605
7.0, 1144.0503560453653, 1159.9224914573133, 837.2514030802995, 260.69346631132066, 0.03200000151991844, 0.144000006839633, 1.008000047877431, 0.0, 0.0, 0.0, 0.0, 0.0, 1.708636543614869E9, 0.0, 2024-02-22 13:15:43.614
7.0, 1135.7066392442212, 1179.5214371751063, 775.5991523107514, 275.0453323912807, 0.03200000151991844, 0.144000006839633, 1.008000047877431, 0.0, 0.0, 0.0, 0.0, 0.0, 1.708636543614869E9, 0.0, 2024-02-22 13:15:43.614
8.0, 1107.462914778851, 1109.4618913051672, 923.177474512253, 43.470727134961635, 0.03200000151991844, 0.144000006839633, 1.008000047877431, 0.0, 0.0, 0.0, 0.0, 0.0, 1.708636543627724E9, 0.0, 2024-02-22 13:15:43.627
8.0, 957.8837461010553, 957.0291789611802, 694.376005073078, 177.6919966447167, 0.03200000151991844, 0.144000006839633, 1.008000047877431, 0.0, 0.0, 0.0, 0.0, 0.0, 1.708636543627724E9, 0.0, 2024-02-22 13:15:43.627
9.0, 852.8823149451055, 900.1826996346936, 748.0342196873389, 203.4318580897525, 0.03200000151991844, 0.144000006839633, 1.008000047877431, 0.0, 0.0, 0.0, 0.0, 0.0, 1.708636543634202E9, 0.0, 2024-02-22 13:15:43.634
9.0, 887.1005295896903, 906.8004526062869, 729.7348892041482, 346.7803534413688, 0.03200000151991844, 0.144000006839633, 1.008000047877431, 0.0, 0.0, 0.0, 0.0, 0.0, 1.708636543634202E9, 0.0, 2024-02-22 13:15:43.634
10.0, 911.9633844951168, 904.9061932787299, 800.1721649696119, 362.5702110542916, 0.03200000151991844, 0.144000006839633, 1.0240000486373901, 0.0, 0.0, 0.0, 0.0, 0.0, 1.708636543642753E9, 0.0, 2024-02-22 13:15:43.642
10.0, 922.2593290731311, 958.6074167424813, 623.9723884072155, 558.4474712335505, 0.03200000151991844, 0.144000006839633, 1.0240000486373901, 0.0, 0.0, 0.0, 0.0, 0.0, 1.708636543642753E9, 0.0, 2024-02-22 13:15:43.642
11.0, 1072.9679475375451, 1114.7875088420697, 843.3530498580076, 433.16830251784995, 0.03200000151991844, 0.144000006839633, 1.0240000486373901, 0.0, 0.0, 0.0, 0.0, 0.0, 1.7086365436585E9, 0.0, 2024-02-22 13:15:43.658
11.0, 1182.2665237425826, 1179.3381820772775, 795.0615916801617, 412.85129600856453, 0.03200000151991844, 0.144000006839633, 1.0240000486373901, 0.0, 0.0, 0.0, 0.0, 0.0, 1.7086365436585E9, 0.0, 2024-02-22 13:15:43.658
12.0, 1135.8225761428475, 1153.822714629583, 775.1634539659135, 224.9755517845042, 0.03200000151991844, 0.144000006839633, 1.0240000486373901, 0.0, 0.0, 0.0, 0.0, 0.0, 1.708636543667875E9, 0.0, 2024-02-22 13:15:43.667
12.0, 1114.808078291826, 1145.9315257230774, 708.0247699613683, 231.09963796194643, 0.03200000151991844, 0.144000006839633, 1.0240000486373901, 0.0, 0.0, 0.0, 0.0, 0.0, 1.708636543667875E9, 0.0, 2024-02-22 13:15:43.667
13.0, 1096.0823992136866, 1095.0090479264036, 869.3995830994099, 16.54157750401646, 0.03200000151991844, 0.144000006839633, 1.0240000486373901, 0.0, 0.0, 0.0, 0.0, 0.0, 1.708636543673756E9, 0.0, 2024-02-22 13:15:43.673
13.0, 922.6389289186336, 912.6683556367643, 646.3912186915986, 130.881538849324, 0.03200000151991844, 0.144000006839633, 1.0240000486373901, 0.0, 0.0, 0.0, 0.0, 0.0, 1.708636543673756E9, 0.0, 2024-02-22 13:15:43.673
14.0, 803.8110876264982, 833.2590598776005, 686.9747430607677, 143.4943514498882, 0.03200000151991844, 0.144000006839633, 1.0240000486373901, 0.0, 0.0, 0.0, 0.0, 0.0, 1.708636543689216E9, 0.0, 2024-02-22 13:15:43.689
14.0, 845.6549582807347, 849.6753507331014, 694.3853548229672, 314.8546974696219, 0.03200000151991844, 0.144000006839633, 1.0240000486373901, 0.0, 0.0, 0.0, 0.0, 0.0, 1.708636543689216E9, 0.0, 2024-02-22 13:15:43.689
15.0, 872.8290713587776, 847.6314954073168, 777.6093485369347, 320.36357010435313, 0.03200000151991844, 0.144000006839633, 1.0240000486373901, 0.0, 0.0, 0.0, 0.0, 0.0, 1.708636543694371E9, 0.0, 2024-02-22 13:15:43.694
15.0, 864.9023534026928, 877.0420686588623, 587.2465708423406, 500.200399373658, 0.03200000151991844, 0.144000006839633, 1.0240000486373901, 0.0, 0.0, 0.0, 0.0, 0.0, 1.708636543694371E9, 0.0, 2024-02-22 13:15:43.694
16.0, 1027.6272704247385, 1041.539698259905, 813.2468552147038, 385.27701363526285, 0.03200000151991844, 0.144000006839633, 1.0240000486373901, 0.0, 0.0, 0.0, 0.0, 0.0, 1.708636543704725E9, 0.0, 2024-02-22 13:15:43.704
16.0, 1148.7775895893574, 1124.7749116737396, 778.1909029800445, 375.40554770221934, 0.03200000151991844, 0.144000006839633, 1.0240000486373901, 0.0, 0.0, 0.0, 0.0, 0.0, 1.708636543704725E9, 0.0, 2024-02-22 13:15:43.704
17.0, 1078.1701483759098, 1068.8615373861976, 740.1430307808332, 162.27799897734076, 0.03200000151991844, 0.144000006839633, 1.0240000486373901, 0.0, 0.0, 0.0, 0.0, 0.0, 1.708636543717824E9, 0.0, 2024-02-22 13:15:43.717
17.0, 1050.4574897042476, 1074.0169894751161, 687.4515803051181, 178.76160803204402, 0.03200000151991844, 0.144000006839633, 1.0240000486373901, 0.0, 0.0, 0.0, 0.0, 0.0, 1.708636543717824E9, 0.0, 2024-02-22 13:15:43.717
18.0, 1057.5352503703907, 1046.8017374975607, 863.4606219697744, -15.047487471718341, 0.03200000151991844, 0.144000006839633, 1.0240000486373901, 0.0, 0.0, 0.0, 0.0, 0.0, 1.708636543721748E9, 0.0, 2024-02-22 13:15:43.721
18.0, 888.8377131191082, 868.3505411618389, 628.4995373035781, 90.78794137435034, 0.03200000151991844, 0.144000006839633, 1.0240000486373901, 0.0, 0.0, 0.0, 0.0, 0.0, 1.708636543721748E9, 0.0, 2024-02-22 13:15:43.721
19.0, 763.5772439031862, 780.2534578056075, 669.7300643650815, 104.17491326574236, 0.03200000151991844, 0.144000006839633, 1.0240000486373901, 0.0, 0.0, 0.0, 0.0, 0.0, 1.708636543733744E9, 0.0, 2024-02-22 13:15:43.733
19.0, 821.771957163699, 824.2889098338783, 692.5191447450779, 282.4054555040784, 0.03200000151991844, 0.144000006839633, 1.0240000486373901, 0.0, 0.0, 0.0, 0.0, 0.0, 1.708636543733744E9, 0.0, 2024-02-22 13:15:43.733
20.0, 853.9911952819675, 824.9134731264785, 771.4946121093817, 291.99455899046734, 0.03200000151991844, 0.144000006839633, 1.0240000486373901, 0.0, 0.0, 0.0, 0.0, 0.0, 1.708636543749334E9, 0.0, 2024-02-22 13:15:43.749
20.0, 828.127917138394, 836.3351275911555, 565.6374288983643, 459.0783294108696, 0.03200000151991844, 0.144000006839633, 1.0240000486373901, 0.0, 0.0, 0.0, 0.0, 0.0, 1.708636543749334E9, 0.0, 2024-02-22 13:15:43.749
21.0, 1007.8880784586072, 1026.3762738895603, 336.972465807572, 370.5324580599554, 0.03200000151991844, 0.144000006839633, 1.0240000486373901, 0.0, 0.0, 0.0, 0.0, 0.0, 1.708636543755091E9, 0.0, 2024-02-22 13:15:43.755
21.0, 1158.2544960770756, 1136.9052771800198, 317.1640856922604, 373.0045319306664, 0.03200000151991844, 0.144000006839633, 1.0240000486373901, 0.0, 0.0, 0.0, 0.0, 0.0, 1.708636543755091E9, 0.0, 2024-02-22 13:15:43.755
22.0, 1062.2942730640061, 1055.6690402925014, 259.0030315313488, 151.80627910140902, 0.03200000151991844, 0.144000006839633, 1.0240000486373901, 0.0, 0.0, 0.0, 0.0, 0.0, 1.708636543762842E9, 0.0, 2024-02-22 13:15:43.762
22.0, 1040.3672396237962, 1064.7289479351602, 199.9425314310938, 173.16671769833192, 0.03200000151991844, 0.144000006839633, 1.0240000486373901, 0.0, 0.0, 0.0, 0.0, 0.0, 1.708636543762842E9, 0.0, 2024-02-22 13:15:43.762
23.0, 1073.957151075825, 1072.7080244906247, 402.66567847924307, 0.2973220464773476, 0.03200000151991844, 0.144000006839633, 1.0240000486373901, 0.0, 0.0, 0.0, 0.0, 0.0, 1.708636543796074E9, 0.0, 2024-02-22 13:15:43.796
23.0, 889.5931729101576, 875.6657854751684, 163.17557496670634, 93.64148504054174, 0.03200000151991844, 0.144000006839633, 1.0240000486373901, 0.0, 0.0, 0.0, 0.0, 0.0, 1.708636543796074E9, 0.0, 2024-02-22 13:15:43.796
24.0, 741.0892254696228, 773.0728498906828, 188.50030751666054, 99.29808372352272, 0.03200000151991844, 0.144000006839633, 1.0240000486373901, 0.0, 0.0, 0.0, 0.0, 0.0, 1.708636543801745E9, 0.0, 2024-02-22 13:15:43.801
24.0, 850.909517718479, 870.8469243822619, 247.02413197327405, 309.28785638557747, 0.03200000151991844, 0.144000006839633, 1.0240000486373901, 0.0, 0.0, 0.0, 0.0, 0.0, 1.708636543801745E9, 0.0, 2024-02-22 13:15:43.801
25.0, 890.3318031514063, 875.4582210276276, 328.8905420033261, 328.9148513530381, 0.03200000151991844, 0.144000006839633, 1.0240000486373901, 0.0, 0.0, 0.0, 0.0, 0.0, 1.708636543805518E9, 0.0, 2024-02-22 13:15:43.805
25.0, 844.0262318500318, 866.0018839896657, 112.77107331389561, 478.8848395762034, 0.03200000151991844, 0.144000006839633, 1.0240000486373901, 0.0, 0.0, 0.0, 0.0, 0.0, 1.708636543805518E9, 0.0, 2024-02-22 13:15:43.805
26.0, 1042.250279251486, 1068.855927536264, -121.09609061526135, 399.90189241198823, 0.03200000151991844, 0.144000006839633, 1.0240000486373901, 0.0, 0.0, 0.0, 0.0, 0.0, 1.708636543811723E9, 0.0, 2024-02-22 13:15:43.811
26.0, 1211.9482397409156, 1199.0194055940956, -128.25612908042967, 420.86777156358585, 0.03200000151991844, 0.144000006839633, 1.0240000486373901, 0.0, 0.0, 0.0, 0.0, 0.0, 1.708636543811723E9, 0.0, 2024-02-22 13:15:43.811
27.0, 1096.510617758613, 1108.7064315141179, -188.65364341484383, 187.13337408285588, 0.03200000151991844, 0.144000006839633, 1.0240000486373901, 0.0, 0.0, 0.0, 0.0, 0.0, 1.708636543823841E9, 0.0, 2024-02-22 13:15:43.823
27.0, 1076.7415065928362, 1112.4594211196527, -259.31531317764893, 209.2642320706509, 0.03200000151991844, 0.144000006839633, 1.0240000486373901, 0.0, 0.0, 0.0, 0.0, 0.0, 1.708636543823841E9, 0.0, 2024-02-22 13:15:43.823
28.0, 1131.7573048910126, 1129.2609216705896, -43.9475643793121, 44.226186926010996, 0.03200000151991844, 0.144000006839633, 1.0240000486373901, 0.0, 0.0, 0.0, 0.0, 0.0, 1.70863654382972E9, 0.0, 2024-02-22 13:15:43.829
28.0, 948.7546503092162, 940.8354121530429, -289.0101188258268, 135.29275084706023, 0.03200000151991844, 0.144000006839633, 1.0240000486373901, 0.0, 0.0, 0.0, 0.0, 0.0, 1.70863654382972E9, 0.0, 2024-02-22 13:15:43.829
29.0, 775.7992369583808, 805.8960818517953, -282.0931738577783, 122.23676010174677, 0.03200000151991844, 0.144000006839633, 1.0240000486373901, 0.0, 0.0, 0.0, 0.0, 0.0, 1.708636543837714E9, 0.0, 2024-02-22 13:15:43.837
29.0, 885.6120494073257, 893.205916267354, -232.20851829880849, 341.59498215280473, 0.03200000151991844, 0.144000006839633, 1.0240000486373901, 0.0, 0.0, 0.0, 0.0, 0.0, 1.708636543837714E9, 0.0, 2024-02-22 13:15:43.837
30.0, 925.6364587331191, 907.4324956987984, -144.62380123650655, 350.81757544353604, 0.03200000151991844, 0.144000006839633, 1.008000047877431, 0.0, 0.0, 0.0, 0.0, 0.0, 1.708636543844729E9, 0.0, 2024-02-22 13:15:43.844
30.0, 854.4418532266282, 877.7545196004212, -380.0261940974742, 491.4939122768119, 0.03200000151991844, 0.144000006839633, 1.008000047877431, 0.0, 0.0, 0.0, 0.0, 0.0, 1.708636543844729E9, 0.0, 2024-02-22 13:15:43.844
31.0, 1040.0848771771416, 1064.6803292357363, -145.31568272830918, 407.43592087272555, 0.03200000151991844, 0.144000006839633, 1.008000047877431, 0.0, 0.0, 0.0, 0.0, 0.0, 1.70863654385273E9, 0.0, 2024-02-22 13:15:43.852
31.0, 1231.1339265136048, 1213.1169584770687, -144.09647534275427, 428.1587065272033, 0.03200000151991844, 0.144000006839633, 1.008000047877431, 0.0, 0.0, 0.0, 0.0, 0.0, 1.70863654385273E9, 0.0, 2024-02-22 13:15:43.852
32.0, 1095.4110871716402, 1105.1890556057915, -219.87619819492102, 184.4724352643825, 0.03200000151991844, 0.144000006839633, 1.008000047877431, 0.0, 0.0, 0.0, 0.0, 0.0, 1.708636543868374E9, 0.0, 2024-02-22 13:15:43.868
32.0, 1066.0678321192972, 1091.953549662605, -302.6925428137183, 199.9874102305621, 0.03200000151991844, 0.144000006839633, 1.008000047877431, 0.0, 0.0, 0.0, 0.0, 0.0, 1.708636543868374E9, 0.0, 2024-02-22 13:15:43.868
33.0, 1138.7135188085958, 1127.1852771951817, -78.51358971977606, 52.34363977983594, 0.03200000151991844, 0.144000006839633, 1.008000047877431, 0.0, 0.0, 0.0, 0.0, 0.0, 1.708636543874752E9, 0.0, 2024-02-22 13:15:43.874
33.0, 951.8699869723059, 933.82683963608, -317.928895233199, 141.50285472348332, 0.03200000151991844, 0.144000006839633, 1.008000047877431, 0.0, 0.0, 0.0, 0.0, 0.0, 1.708636543874752E9, 0.0, 2024-02-22 13:15:43.874
34.0, 753.5655317218043, 773.4561896361411, -330.9774061786011, 110.65615988895297, 0.03200000151991844, 0.144000006839633, 1.008000047877431, 0.0, 0.0, 0.0, 0.0, 0.0, 1.708636543882815E9, 0.0, 2024-02-22 13:15:43.882
34.0, 879.927401474677, 883.9945426764898, -267.5580526799895, 341.67539000185207, 0.03200000151991844, 0.144000006839633, 1.008000047877431, 0.0, 0.0, 0.0, 0.0, 0.0, 1.708636543882815E9, 0.0, 2024-02-22 13:15:43.882
35.0, 931.3921647649258, 906.3180055120029, -170.9115580250509, 363.6286027417518, 0.03200000151991844, 0.144000006839633, 1.008000047877431, 0.0, 0.0, 0.0, 0.0, 0.0, 1.708636543897722E9, 0.0, 2024-02-22 13:15:43.897
35.0, 837.3280710293911, 839.4429844543338, 67.03957665571943, 474.47923742840067, 0.03200000151991844, 0.144000006839633, 1.008000047877431, 0.0, 0.0, 0.0, 0.0, 0.0, 1.708636543897722E9, 0.0, 2024-02-22 13:15:43.897
36.0, 1022.1632765894756, 1038.6768048438244, -167.9906961596571, 393.2074714913033, 0.03200000151991844, 0.144000006839633, 1.008000047877431, 0.0, 0.0, 0.0, 0.0, 0.0, 1.708636543900822E9, 0.0, 2024-02-22 13:15:43.900
36.0, 1224.65641979035, 1212.0548268896528, -147.69799900008366, 438.2171674580313, 0.03200000151991844, 0.144000006839633, 1.008000047877431, 0.0, 0.0, 0.0, 0.0, 0.0, 1.708636543900822E9, 0.0, 2024-02-22 13:15:43.900
37.0, 1066.6512565123849, 1067.2702099550515, -242.9663405213505, 656.8255395679735, 0.03200000151991844, 0.144000006839633, 1.008000047877431, 0.0, 0.0, 0.0, 0.0, 0.0, 1.70863654391309E9, 0.0, 2024-02-22 13:15:43.913
37.0, 1017.0265240003355, 1043.480706336908, -325.98837963771075, 670.4182059569284, 0.03200000151991844, 0.144000006839633, 1.008000047877431, 0.0, 0.0, 0.0, 0.0, 0.0, 1.70863654391309E9, 0.0, 2024-02-22 13:15:43.913
38.0, 1110.6530494410545, 1118.4563506986015, -566.8940352834761, 540.0677329013124, 0.03200000151991844, 0.144000006839633, 1.008000047877431, 0.0, 0.0, 0.0, 0.0, 0.0, 1.708636543928715E9, 0.0, 2024-02-22 13:15:43.928
38.0, 918.6484556659125, 911.8624071963131, -329.2682718988508, 619.0469401655719, 0.03200000151991844, 0.144000006839633, 1.008000047877431, 0.0, 0.0, 0.0, 0.0, 0.0, 1.708636543928715E9, 0.0, 2024-02-22 13:15:43.928
39.0, 704.7747968998738, 737.8224228583276, -355.03244269359857, 584.3743276763707, 0.03200000151991844, 0.144000006839633, 1.008000047877431, 0.0, 0.0, 0.0, 0.0, 0.0, 1.708636543934059E9, 0.0, 2024-02-22 13:15:43.934
39.0, 849.1891637388617, 874.8916261843406, -273.9645013040863, 827.5818917448632, 0.03200000151991844, 0.144000006839633, 1.008000047877431, 0.0, 0.0, 0.0, 0.0, 0.0, 1.708636543934059E9, 0.0, 2024-02-22 13:15:43.934
40.0, 913.4668242773041, 897.1963895200752, -174.49438218260184, 847.6202757074498, 0.03200000151991844, 0.144000006839633, 1.008000047877431, 0.0, 0.0, 0.0, 0.0, 0.0, 1.708636543941925E9, 0.0, 2024-02-22 13:15:43.941
40.0, 796.866093408782, 813.9667859561741, 50.12400915613398, 953.122853457462, 0.03200000151991844, 0.144000006839633, 1.008000047877431, 0.0, 0.0, 0.0, 0.0, 0.0, 1.708636543941925E9, 0.0, 2024-02-22 13:15:43.941
41.0, 1006.1303254794329, 1030.1760122445412, -174.05307398783043, 895.9584826347418, 0.03200000151991844, 0.144000006839633, 1.008000047877431, 0.0, 0.0, 0.0, 0.0, 0.0, 1.708636543960054E9, 0.0, 2024-02-22 13:15:43.960
41.0, 1213.874288218096, 1201.246516017709, -149.65396667690948, 936.9664856488816, 0.03200000151991844, 0.144000006839633, 1.008000047877431, 0.0, 0.0, 0.0, 0.0, 0.0, 1.708636543960054E9, 0.0, 2024-02-22 13:15:43.960
42.0, 1050.8426993996836, 1056.6414142809808, -259.06286993063986, 1152.8297711913474, 0.03200000151991844, 0.144000006839633, 1.008000047877431, 0.0, 0.0, 0.0, 0.0, 0.0, 1.708636543966799E9, 0.0, 2024-02-22 13:15:43.966
42.0, 1012.3329495559447, 1044.770971821621, -328.0079256137833, 1172.9784822026268, 0.03200000151991844, 0.144000006839633, 1.008000047877431, 0.0, 0.0, 0.0, 0.0, 0.0, 1.708636543966799E9, 0.0, 2024-02-22 13:15:43.966
43.0, 1142.7077319612727, 1143.076112106908, -546.7135351225734, 1056.09538888745, 0.03200000151991844, 0.144000006839633, 1.008000047877431, 0.0, 0.0, 0.0, 0.0, 0.0, 1.708636543974715E9, 0.0, 2024-02-22 13:15:43.974
43.0, 963.2205833378248, 947.1521031782031, -785.6351738418452, 1147.3152887066826, 0.03200000151991844, 0.144000006839633, 1.008000047877431, 0.0, 0.0, 0.0, 0.0, 0.0, 1.708636543974715E9, 0.0, 2024-02-22 13:15:43.974
44.0, 733.2503951624967, 765.3929653316736, -815.2664011907764, 1104.5158736137673, 0.03200000151991844, 0.144000006839633, 1.008000047877431, 0.0, 0.0, 0.0, 0.0, 0.0, 1.708636543989178E9, 0.0, 2024-02-22 13:15:43.989
44.0, 911.6604525987059, 931.173380617518, -711.1494563743472, 877.9041155986488, 0.03200000151991844, 0.144000006839633, 1.008000047877431, 0.0, 0.0, 0.0, 0.0, 0.0, 1.708636543989178E9, 0.0, 2024-02-22 13:15:43.989
45.0, 999.918351653032, 983.6292173960246, -592.1720190839842, 910.7815761091188, 0.03200000151991844, 0.144000006839633, 1.008000047877431, 0.0, 0.0, 0.0, 0.0, 0.0, 1.708636543992817E9, 0.0, 2024-02-22 13:15:43.992
45.0, 894.5261009517126, 905.9870243659243, -365.0291952751577, 1017.4697021450847, 0.03200000151991844, 0.144000006839633, 1.008000047877431, 0.0, 0.0, 0.0, 0.0, 0.0, 1.708636543992817E9, 0.0, 2024-02-22 13:15:43.992
46.0, 1102.3654311392456, 1134.2574280113913, -577.7995835542679, 960.3389904219657, 0.03200000151991844, 0.144000006839633, 1.008000047877431, 0.0, 0.0, 0.0, 0.0, 0.0, 1.708636544004079E9, 0.0, 2024-02-22 13:15:44.004
46.0, 1296.5821757381782, 1283.1914639468305, -574.7216458907351, 976.1774667343125, 0.03200000151991844, 0.144000006839633, 1.008000047877431, 0.0, 0.0, 0.0, 0.0, 0.0, 1.708636544004079E9, 0.0, 2024-02-22 13:15:44.004
47.0, 1114.8997058407404, 1120.197274127975, -683.5508646513335, 1184.7554271630943, 0.03200000151991844, 0.144000006839633, 1.008000047877431, 0.0, 0.0, 0.0, 0.0, 0.0, 1.708636544018835E9, 0.0, 2024-02-22 13:15:44.018
47.0, 1078.57779747108, 1122.6973972483538, -752.0845313393511, 1204.9340573740192, 0.03200000151991844, 0.144000006839633, 1.008000047877431, 0.0, 0.0, 0.0, 0.0, 0.0, 1.708636544018835E9, 0.0, 2024-02-22 13:15:44.018
48.0, 1269.2509868619964, 1277.4376278650016, -928.9930189433508, 1128.7148962770589, 0.03200000151991844, 0.144000006839633, 1.008000047877431, 0.0, 0.0, 0.0, 0.0, 0.0, 1.708636544024716E9, 0.0, 2024-02-22 13:15:44.024
48.0, 1064.0669856430031, 1055.0800060494803, -704.1764129069634, 1204.1262389835902, 0.03200000151991844, 0.144000006839633, 1.008000047877431, 0.0, 0.0, 0.0, 0.0, 0.0, 1.708636544024716E9, 0.0, 2024-02-22 13:15:44.024
49.0, 1268.398289672099, 811.3843850367703, -781.6147813894786, 1111.3430609828793, 0.03200000151991844, 0.144000006839633, 1.008000047877431, 0.0, 0.0, 0.0, 0.0, 0.0, 1.70863654403334E9, 0.0, 2024-02-22 13:15:44.033
49.0, 1028.5585055137053, 1044.7934112213552, -620.4606223488227, 935.8744348618202, 0.03200000151991844, 0.144000006839633, 1.008000047877431, 0.0, 0.0, 0.0, 0.0, 0.0, 1.70863654403334E9, 0.0, 2024-02-22 13:15:44.033
50.0, 1070.617420415394, 1051.0390441473573, -537.5470403311774, 938.6905795284547, 0.03200000151991844, 0.144000006839633, 1.008000047877431, 0.0, 0.0, 0.0, 0.0, 0.0, 1.708636544049718E9, 0.0, 2024-02-22 13:15:44.049
50.0, 950.3478476903401, 966.5902331979014, -324.6083565540612, 1037.6483323560096, 0.03200000151991844, 0.144000006839633, 1.008000047877431, 0.0, 0.0, 0.0, 0.0, 0.0, 1.708636544049718E9, 0.0, 2024-02-22 13:15:44.049
51.0, 1175.4505560733378, 1200.9417141713202, -526.6826309598982, 988.6556429364718, 0.03200000151991844, 0.144000006839633, 1.008000047877431, 0.0, 0.0, 0.0, 0.0, 0.0, 1.708636544053697E9, 0.0, 2024-02-22 13:15:44.053
51.0, 1366.6417216081172, 1343.5927181812003, -532.7618383378722, 1005.2570588397793, 0.03200000151991844, 0.144000006839633, 1.008000047877431, 0.0, 0.0, 0.0, 0.0, 0.0, 1.708636544053697E9, 0.0, 2024-02-22 13:15:44.053
52.0, 1273.9875701558776, 1258.799836435821, -587.2203915426508, 772.0238079531118, 0.03200000151991844, 0.144000006839633, 1.008000047877431, 0.0, 0.0, 0.0, 0.0, 0.0, 1.708636544062711E9, 0.0, 2024-02-22 13:15:44.062
52.0, 1154.9839535658248, 1175.979751917068, -714.5490254340693, 746.3867937568575, 0.03200000151991844, 0.144000006839633, 1.008000047877431, 0.0, 0.0, 0.0, 0.0, 0.0, 1.708636544062711E9, 0.0, 2024-02-22 13:15:44.062
53.0, 1251.550040371716, 1244.0104020610452, -951.6325033251196, 610.3703722683713, 0.03200000151991844, 0.144000006839633, 1.008000047877431, 0.0, 0.0, 0.0, 0.0, 0.0, 1.708636544078347E9, 0.0, 2024-02-22 13:15:44.078
53.0, 1050.6744039016776, 1028.0704485694878, -728.121122373268, 683.2049239054322, 0.03200000151991844, 0.144000006839633, 1.008000047877431, 0.0, 0.0, 0.0, 0.0, 0.0, 1.708636544078347E9, 0.0, 2024-02-22 13:15:44.078
54.0, 1278.0921103572473, 801.2155970572494, -785.5510260928422, 611.6980367526412, 0.03200000151991844, 0.144000006839633, 1.008000047877431, 0.0, 0.0, 0.0, 0.0, 0.0, 1.708636544084724E9, 0.0, 2024-02-22 13:15:44.084
54.0, 1428.658612623345, 938.2997599830851, -694.61722862022, 370.5044088102877, 0.03200000151991844, 0.144000006839633, 1.008000047877431, 0.0, 0.0, 0.0, 0.0, 0.0, 1.708636544084724E9, 0.0, 2024-02-22 13:15:44.084
55.0, 1557.718820194248, 1035.099590536207, -557.5985139436089, 428.29334292560816, 0.03200000151991844, 0.144000006839633, 1.008000047877431, 0.0, 0.0, 0.0, 0.0, 0.0, 1.70863654410871E9, 0.0, 2024-02-22 13:15:44.108
55.0, 1423.3722640359774, 930.2458854285069, -360.6778216767125, 519.1579522490501, 0.03200000151991844, 0.144000006839633, 1.008000047877431, 0.0, 0.0, 0.0, 0.0, 0.0, 1.70863654410871E9, 0.0, 2024-02-22 13:15:44.108
56.0, 1572.3306093211286, 1092.2602214589715, -132.87116562575102, 427.04421634040773, 0.03200000151991844, 0.144000006839633, 1.008000047877431, 0.0, 0.0, 0.0, 0.0, 0.0, 1.708636544115037E9, 0.0, 2024-02-22 13:15:44.115
56.0, 1348.2301941262558, 1319.9266312615946, -74.04253932274878, 500.88106116559356, 0.03200000151991844, 0.144000006839633, 1.008000047877431, 0.0, 0.0, 0.0, 0.0, 0.0, 1.708636544115037E9, 0.0, 2024-02-22 13:15:44.115
57.0, 1172.3258696603589, 1162.9125414718874, -187.86452452419326, 705.0122805470601, 0.03200000151991844, 0.144000006839633, 1.008000047877431, 0.0, 0.0, 0.0, 0.0, 0.0, 1.708636544120796E9, 0.0, 2024-02-22 13:15:44.120
57.0, 1060.499121085275, 1074.6733419173397, -310.9109729663469, 683.3208608040586, 0.03200000151991844, 0.144000006839633, 1.008000047877431, 0.0, 0.0, 0.0, 0.0, 0.0, 1.708636544120796E9, 0.0, 2024-02-22 13:15:44.120
58.0, 1172.0210678139701, 1161.0743806436658, -536.5129579934292, 563.8759360192344, 0.03200000151991844, 0.144000006839633, 1.008000047877431, 0.0, 0.0, 0.0, 0.0, 0.0, 1.708636544127735E9, 0.0, 2024-02-22 13:15:44.127
58.0, 1022.2623839383014, 994.4599676677026, -773.7666013324633, 655.7353587308899, 0.03200000151991844, 0.144000006839633, 1.008000047877431, 0.0, 0.0, 0.0, 0.0, 0.0, 1.708636544127735E9, 0.0, 2024-02-22 13:15:44.127
59.0, 1212.5840227333829, 1220.650986937806, -851.2348890146241, 567.7242930736393, 0.03200000151991844, 0.144000006839633, 1.008000047877431, 0.0, 0.0, 0.0, 0.0, 0.0, 1.70863654413917E9, 0.0, 2024-02-22 13:15:44.139
59.0, 1348.0675084781833, 1345.816088704858, -766.8459164644592, 330.79789098072797, 0.03200000151991844, 0.144000006839633, 1.008000047877431, 0.0, 0.0, 0.0, 0.0, 0.0, 1.70863654413917E9, 0.0, 2024-02-22 13:15:44.139
60.0, 1473.754326289054, 1435.0912405471317, -634.3150817346759, 375.56449345033616, 0.03200000151991844, 0.144000006839633, 1.0240000486373901, 0.0, 0.0, 0.0, 0.0, 0.0, 1.708636544146692E9, 0.0, 2024-02-22 13:15:44.146
60.0, 1316.0109560079873, 1317.6565119884908, -433.5871713128872, 452.1464248429984, 0.03200000151991844, 0.144000006839633, 1.0240000486373901, 0.0, 0.0, 0.0, 0.0, 0.0, 1.708636544146692E9, 0.0, 2024-02-22 13:15:44.146
61.0, 1446.98038250627, 1463.0357730160467, -206.55467455275357, 351.1691260393709, 0.03200000151991844, 0.144000006839633, 1.0240000486373901, 0.0, 0.0, 0.0, 0.0, 0.0, 1.708636544152818E9, 0.0, 2024-02-22 13:15:44.152
61.0, 1241.672964588739, 1218.9119334584102, -134.07915331143886, 434.0303494576365, 0.03200000151991844, 0.144000006839633, 1.0240000486373901, 0.0, 0.0, 0.0, 0.0, 0.0, 1.708636544152818E9, 0.0, 2024-02-22 13:15:44.152
62.0, 1065.0393596314825, 1053.0604600734077, -255.68387032067403, 632.5666785053909, 0.03200000151991844, 0.144000006839633, 1.0240000486373901, 0.0, 0.0, 0.0, 0.0, 0.0, 1.708636544186042E9, 0.0, 2024-02-22 13:15:44.186
62.0, 933.4061008910649, 950.3291481905617, -380.7947435383685, 607.0792603073642, 0.03200000151991844, 0.144000006839633, 1.0240000486373901, 0.0, 0.0, 0.0, 0.0, 0.0, 1.708636544186042E9, 0.0, 2024-02-22 13:15:44.186
63.0, 1053.937466613017, 1046.4053081022575, -599.1301029515453, 486.3141508381814, 0.03200000151991844, 0.144000006839633, 1.0240000486373901, 0.0, 0.0, 0.0, 0.0, 0.0, 1.708636544192351E9, 0.0, 2024-02-22 13:15:44.192
63.0, 896.0071013341658, 881.7019840036519, -837.0531883826479, 575.144254585728, 0.03200000151991844, 0.144000006839633, 1.0240000486373901, 0.0, 0.0, 0.0, 0.0, 0.0, 1.708636544192351E9, 0.0, 2024-02-22 13:15:44.192
64.0, 1103.169509629719, 636.955451103393, -906.1740193637088, 502.3770211478695, 0.03200000151991844, 0.144000006839633, 1.0240000486373901, 0.0, 0.0, 0.0, 0.0, 0.0, 1.708636544196556E9, 0.0, 2024-02-22 13:15:44.196
64.0, 1269.9335186039098, 788.2848929604515, -790.9720110786147, 279.22467059176415, 0.03200000151991844, 0.144000006839633, 1.0240000486373901, 0.0, 0.0, 0.0, 0.0, 0.0, 1.708636544196556E9, 0.0, 2024-02-22 13:15:44.196
65.0, 1408.7735645589419, 898.9373129494488, -651.0025153369643, 329.13363550044596, 0.03200000151991844, 0.144000006839633, 1.0240000486373901, 0.0, 0.0, 0.0, 0.0, 0.0, 1.70863654420204E9, 0.0, 2024-02-22 13:15:44.202
65.0, 1249.354719097726, 770.032311226707, -465.6455937330611, 406.83753687981516, 0.03200000151991844, 0.144000006839633, 1.0240000486373901, 0.0, 0.0, 0.0, 0.0, 0.0, 1.70863654420204E9, 0.0, 2024-02-22 13:15:44.202
66.0, 1413.8710481985472, 945.4467087984085, -701.4874248388223, 327.72743311710656, 0.03200000151991844, 0.144000006839633, 1.0240000486373901, 0.0, 0.0, 0.0, 0.0, 0.0, 1.708636544205696E9, 0.0, 2024-02-22 13:15:44.205
66.0, 1239.4215448154137, 742.472988453228, -600.543785134796, 434.26970305480063, 0.03200000151991844, 0.144000006839633, 1.0240000486373901, 0.0, 0.0, 0.0, 0.0, 0.0, 1.708636544205696E9, 0.0, 2024-02-22 13:15:44.205
67.0, 1052.3723184815608, 573.6707340031862, -738.3048699526116, 620.2474480513483, 0.03200000151991844, 0.144000006839633, 1.0240000486373901, 0.0, 0.0, 0.0, 0.0, 0.0, 1.708636544214824E9, 0.0, 2024-02-22 13:15:44.214
67.0, 936.7009527520277, 488.7039469098672, -855.457236064598, 606.0994065189734, 0.03200000151991844, 0.144000006839633, 1.0240000486373901, 0.0, 0.0, 0.0, 0.0, 0.0, 1.708636544214824E9, 0.0, 2024-02-22 13:15:44.214
68.0, 1108.5923645654693, 628.6379136019386, -1034.7517798403278, 532.752488587983, 0.03200000151991844, 0.144000006839633, 1.0240000486373901, 0.0, 0.0, 0.0, 0.0, 0.0, 1.708636544227696E9, 0.0, 2024-02-22 13:15:44.227
68.0, 986.1274705664255, 487.4548203246668, -1265.2698633591644, 634.8068785788491, 0.03200000151991844, 0.144000006839633, 1.0240000486373901, 0.0, 0.0, 0.0, 0.0, 0.0, 1.708636544227696E9, 0.0, 2024-02-22 13:15:44.227
69.0, 1140.953718882054, 685.342276730109, -1367.3018139502965, 528.4516036389396, 0.03200000151991844, 0.144000006839633, 1.0240000486373901, 0.0, 0.0, 0.0, 0.0, 0.0, 1.708636544231029E9, 0.0, 2024-02-22 13:15:44.231
69.0, 1316.4503942527808, 845.9317108774558, -1244.1225990597159, 320.2251938059926, 0.03200000151991844, 0.144000006839633, 1.0240000486373901, 0.0, 0.0, 0.0, 0.0, 0.0, 1.708636544231029E9, 0.0, 2024-02-22 13:15:44.231
70.0, 1477.299751447048, 970.8705486971885, -1089.444076792337, 373.75812177173793, 0.03200000151991844, 0.144000006839633, 1.008000047877431, 0.0, 0.0, 0.0, 0.0, 0.0, 1.708636544243694E9, 0.0, 2024-02-22 13:15:44.243
70.0, 1292.7637378834188, 824.2159817847423, -926.4255776237696, 440.15256568510085, 0.03200000151991844, 0.144000006839633, 1.008000047877431, 0.0, 0.0, 0.0, 0.0, 0.0, 1.708636544243694E9, 0.0, 2024-02-22 13:15:44.243
71.0, 1452.612671839539, 985.9722647182643, -1164.2383360061795, 361.92507831193507, 0.03200000151991844, 0.144000006839633, 1.008000047877431, 0.0, 0.0, 0.0, 0.0, 0.0, 1.708636544257818E9, 0.0, 2024-02-22 13:15:44.257
71.0, 1306.2872161231935, 817.237328467425, -1048.5183515772223, 474.72794077545404, 0.03200000151991844, 0.144000006839633, 1.008000047877431, 0.0, 0.0, 0.0, 0.0, 0.0, 1.708636544257818E9, 0.0, 2024-02-22 13:15:44.257
72.0, 1129.4142575687729, 651.2773979837075, -1182.5806753388606, 672.0375826377422, 0.03200000151991844, 0.144000006839633, 1.008000047877431, 0.0, 0.0, 0.0, 0.0, 0.0, 1.70863654427404E9, 0.0, 2024-02-22 13:15:44.274
72.0, 998.772072316613, 541.0176674900576, -1318.2530260314234, 647.6945738261566, 0.03200000151991844, 0.144000006839633, 1.008000047877431, 0.0, 0.0, 0.0, 0.0, 0.0, 1.70863654427404E9, 0.0, 2024-02-22 13:15:44.274
73.0, 1172.0210678139701, 681.0376518811099, -1497.502691007685, 566.2283330913633, 0.03200000151991844, 0.144000006839633, 1.008000047877431, 0.0, 0.0, 0.0, 0.0, 0.0, 1.708636544278317E9, 0.0, 2024-02-22 13:15:44.278
73.0, 1052.7612680769525, 551.7997990623116, -1724.5763266673312, 661.6631001606584, 0.03200000151991844, 0.144000006839633, 1.008000047877431, 0.0, 0.0, 0.0, 0.0, 0.0, 1.708636544278317E9, 0.0, 2024-02-22 13:15:44.278
74.0, 1208.3317564837635, 742.738521350082, -1826.5671383589506, 568.2329194676131, 0.03200000151991844, 0.144000006839633, 1.008000047877431, 0.0, 0.0, 0.0, 0.0, 0.0, 1.708636544290714E9, 0.0, 2024-02-22 13:15:44.290
74.0, 1384.9578816411085, 901.9591521136463, -1701.1290238951333, 362.5122426049784, 0.03200000151991844, 0.144000006839633, 1.008000047877431, 0.0, 0.0, 0.0, 0.0, 0.0, 1.708636544290714E9, 0.0, 2024-02-22 13:15:44.290
75.0, 1553.9116020393558, 1048.3762353789061, -1545.1826755427755, 420.8359824139625, 0.03200000151991844, 0.144000006839633, 1.008000047877431, 0.0, 0.0, 0.0, 0.0, 0.0, 1.70863654429501E9, 0.0, 2024-02-22 13:15:44.295
75.0, 1366.0807366147637, 890.3860317007639, -1389.064291792456, 480.88381610251963, 0.03200000151991844, 0.144000006839633, 1.008000047877431, 0.0, 0.0, 0.0, 0.0, 0.0, 1.70863654429501E9, 0.0, 2024-02-22 13:15:44.295
76.0, 1488.4633528147824, 1020.9178899042308, -1150.6437996672466, 381.83630567602813, 0.03200000151991844, 0.144000006839633, 1.008000047877431, 0.0, 0.0, 0.0, 0.0, 0.0, 1.708636544303023E9, 0.0, 2024-02-22 13:15:44.303
76.0, 1355.6763349380344, 841.7261933772825, -1043.2301330398768, 503.3493951363489, 0.03200000151991844, 0.144000006839633, 1.008000047877431, 0.0, 0.0, 0.0, 0.0, 0.0, 1.708636544303023E9, 0.0, 2024-02-22 13:15:44.303
77.0, 1167.3106638197787, 671.7870093407109, -1185.482837704476, 677.0939273778349, 0.03200000151991844, 0.144000006839633, 1.008000047877431, 0.0, 0.0, 0.0, 0.0, 0.0, 1.70863654431881E9, 0.0, 2024-02-22 13:15:44.318
77.0, 1002.9757198668085, 527.9093181453645, -1326.7089398312382, 640.3120113136247, 0.03200000151991844, 0.144000006839633, 1.008000047877431, 0.0, 0.0, 0.0, 0.0, 0.0, 1.70863654431881E9, 0.0, 2024-02-22 13:15:44.318
78.0, 1191.4835071833804, 691.3036772594787, -1495.3746879328974, 571.0191449346021, 0.03200000151991844, 0.144000006839633, 1.008000047877431, 0.0, 0.0, 0.0, 0.0, 0.0, 1.708636544322435E9, 0.0, 2024-02-22 13:15:44.322
78.0, 1054.275927559007, 546.3694643266499, -1730.1899165008217, 657.2574980128556, 0.03200000151991844, 0.144000006839633, 1.008000047877431, 0.0, 0.0, 0.0, 0.0, 0.0, 1.708636544322435E9, 0.0, 2024-02-22 13:15:44.322
79.0, 1179.2278550285846, 704.109094707761, -1855.8318555122241, 535.8117267517373, 0.03200000151991844, 0.144000006839633, 1.008000047877431, 0.0, 0.0, 0.0, 0.0, 0.0, 1.708636544349706E9, 0.0, 2024-02-22 13:15:44.349
79.0, 1365.3159270738252, 878.1659085955471, -1722.8615825376473, 335.18479362875223, 0.03200000151991844, 0.144000006839633, 1.008000047877431, 0.0, 0.0, 0.0, 0.0, 0.0, 1.708636544349706E9, 0.0, 2024-02-22 13:15:44.349
80.0, 1528.3119868426584, 1011.9608295103535, -1566.5524638895877, 394.4921271260828, 0.03200000151991844, 0.144000006839633, 1.008000047877431, 0.0, 0.0, 0.0, 0.0, 0.0, 1.708636544354704E9, 0.0, 2024-02-22 13:15:44.354
80.0, 1301.8404750758782, 815.2963203904219, -1429.758143210318, 433.85083425976336, 0.03200000151991844, 0.144000006839633, 1.008000047877431, 0.0, 0.0, 0.0, 0.0, 0.0, 1.708636544354704E9, 0.0, 2024-02-22 13:15:44.354
81.0, 1428.9353652200662, 943.3374052233994, -1200.9230146715418, 342.5710960412398, 0.03200000151991844, 0.144000006839633, 1.008000047877431, 0.0, 0.0, 0.0, 0.0, 0.0, 1.70863654435755E9, 0.0, 2024-02-22 13:15:44.357
81.0, 1307.6410599071532, 778.3236694284715, -1072.4050925942138, 472.91408929694444, 0.03200000151991844, 0.144000006839633, 1.008000047877431, 0.0, 0.0, 0.0, 0.0, 0.0, 1.70863654435755E9, 0.0, 2024-02-22 13:15:44.357
82.0, 1088.3501560552977, 584.6099413735792, -1224.426415943075, 635.3903029719368, 0.03200000151991844, 0.144000006839633, 1.008000047877431, 0.0, 0.0, 0.0, 0.0, 0.0, 1.708636544363683E9, 0.0, 2024-02-22 13:15:44.363
82.0, 907.2268012012355, 433.18513206765056, -1375.6866696509533, 589.6251472141594, 0.03200000151991844, 0.144000006839633, 1.008000047877431, 0.0, 0.0, 0.0, 0.0, 0.0, 1.708636544363683E9, 0.0, 2024-02-22 13:15:44.363
83.0, 1133.4851386705413, 629.5317496913485, -1514.8184278025292, 540.5165208959952, 0.03200000151991844, 0.144000006839633, 1.008000047877431, 0.0, 0.0, 0.0, 0.0, 0.0, 1.70863654437834E9, 0.0, 2024-02-22 13:15:44.378
83.0, 997.6688018296845, 492.0848164698109, -1745.3178118215874, 621.9266631314531, 0.03200000151991844, 0.144000006839633, 1.008000047877431, 0.0, 0.0, 0.0, 0.0, 0.0, 1.70863654437834E9, 0.0, 2024-02-22 13:15:44.378
84.0, 1111.4646077314392, 642.3558666394092, -1879.0341948373243, 503.2708572372794, 0.03200000151991844, 0.144000006839633, 1.008000047877431, 0.0, 0.0, 0.0, 0.0, 0.0, 1.708636544384349E9, 0.0, 2024-02-22 13:15:44.384
84.0, 1325.3438763474114, 843.6354123046622, -1730.5208976469003, 313.39239658694714, 0.03200000151991844, 0.144000006839633, 1.008000047877431, 0.0, 0.0, 0.0, 0.0, 0.0, 1.708636544384349E9, 0.0, 2024-02-22 13:15:44.384
85.0, 1502.9554651430808, 1008.9090711465105, -1565.7783045987599, 372.53517448622733, 0.03200000151991844, 0.144000006839633, 1.008000047877431, 0.0, 0.0, 0.0, 0.0, 0.0, 1.708636544393619E9, 0.0, 2024-02-22 13:15:44.393
85.0, 1268.880736766383, 809.3423996609636, -1436.2618292332627, 406.115736188367, 0.03200000151991844, 0.144000006839633, 1.008000047877431, 0.0, 0.0, 0.0, 0.0, 0.0, 1.708636544393619E9, 0.0, 2024-02-22 13:15:44.393
86.0, 1422.1811059000902, 967.6841539349407, -1676.1689315908588, 327.480599720031, 0.03200000151991844, 0.144000006839633, 1.008000047877431, 0.0, 0.0, 0.0, 0.0, 0.0, 1.70863654442448E9, 0.0, 2024-02-22 13:15:44.424
86.0, 1330.7312022335827, 831.2656932012178, -1531.2291088080965, 477.2261939458549, 0.03200000151991844, 0.144000006839633, 1.008000047877431, 0.0, 0.0, 0.0, 0.0, 0.0, 1.70863654442448E9, 0.0, 2024-02-22 13:15:44.424
87.0, 1094.244238385465, 618.2578212749213, -1700.2108784560114, 639.7697258200496, 0.03200000151991844, 0.144000006839633, 1.008000047877431, 0.0, 0.0, 0.0, 0.0, 0.0, 1.70863654443182E9, 0.0, 2024-02-22 13:15:44.431
87.0, 927.9682863554917, 471.7472405107692, -1852.914733546786, 603.6909109475091, 0.03200000151991844, 0.144000006839633, 1.008000047877431, 0.0, 0.0, 0.0, 0.0, 0.0, 1.70863654443182E9, 0.0, 2024-02-22 13:15:44.431
88.0, 1170.323153234087, 680.7122805849649, -1989.151809132658, 565.917921395041, 0.03200000151991844, 0.144000006839633, 1.008000047877431, 0.0, 0.0, 0.0, 0.0, 0.0, 1.708636544435546E9, 0.0, 2024-02-22 13:15:44.435
88.0, 1023.859321219381, 522.0638545146212, -2231.5403351108544, 643.5694641750306, 0.03200000151991844, 0.144000006839633, 1.008000047877431, 0.0, 0.0, 0.0, 0.0, 0.0, 1.708636544435546E9, 0.0, 2024-02-22 13:15:44.435
89.0, 1111.9956735251471, 654.7498950925656, -2377.5422894810326, 503.420453235507, 0.03200000151991844, 0.144000006839633, 1.008000047877431, 0.0, 0.0, 0.0, 0.0, 0.0, 1.708636544442143E9, 0.0, 2024-02-22 13:15:44.442
89.0, 1355.9399978849106, 873.5807912498713, -2209.6637903200462, 337.7578447982669, 0.03200000151991844, 0.144000006839633, 1.008000047877431, 0.0, 0.0, 0.0, 0.0, 0.0, 1.708636544442143E9, 0.0, 2024-02-22 13:15:44.442
90.0, 1545.3023523413576, 1031.3821299802512, -2046.9108240483329, 410.6671944344416, 0.03200000151991844, 0.144000006839633, 1.0240000486373901, 0.0, 0.0, 0.0, 0.0, 0.0, 1.708636544447686E9, 0.0, 2024-02-22 13:15:44.447
90.0, 1768.974548991304, 805.0789137114771, -1931.4563725162297, 422.58625559322536, 0.03200000151991844, 0.144000006839633, 1.0240000486373901, 0.0, 0.0, 0.0, 0.0, 0.0, 1.708636544447686E9, 0.0, 2024-02-22 13:15:44.447
91.0, 1918.632255568169, 954.7964586876333, -2167.032670725137, 349.6469867574051, 0.03200000151991844, 0.144000006839633, 1.0240000486373901, 0.0, 0.0, 0.0, 0.0, 0.0, 1.708636544452442E9, 0.0, 2024-02-22 13:15:44.452
91.0, 1846.1885234764777, 840.043238397222, -2010.9292465746403, 502.6537737445906, 0.03200000151991844, 0.144000006839633, 1.0240000486373901, 0.0, 0.0, 0.0, 0.0, 0.0, 1.708636544452442E9, 0.0, 2024-02-22 13:15:44.452
92.0, 2080.2726016030647, 617.3303260859102, -2197.5670839133672, 649.7141198022291, 0.03200000151991844, 0.144000006839633, 1.0240000486373901, 0.0, 0.0, 0.0, 0.0, 0.0, 1.708636544468352E9, 0.0, 2024-02-22 13:15:44.468
92.0, 1888.651347573381, 449.9099646694958, -2355.779811638873, 606.6267324127257, 0.03200000151991844, 0.144000006839633, 1.0240000486373901, 0.0, 0.0, 0.0, 0.0, 0.0, 1.708636544468352E9, 0.0, 2024-02-22 13:15:44.468
93.0, 1683.5140951038338, 686.4717265167274, -2460.4371719988994, 585.8254088591784, 0.03200000151991844, 0.144000006839633, 1.0240000486373901, 0.0, 0.0, 0.0, 0.0, 0.0, 1.70863654447203E9, 0.0, 2024-02-22 13:15:44.472
93.0, 1525.0451842313632, 536.5821461426094, -2220.6721858396195, 662.4821382509544, 0.03200000151991844, 0.144000006839633, 1.0240000486373901, 0.0, 0.0, 0.0, 0.0, 0.0, 1.70863654447203E9, 0.0, 2024-02-22 13:15:44.472
94.0, 1582.323622002732, 625.4627385395579, -2386.6003271737136, 507.6203608857468, 0.03200000151991844, 0.144000006839633, 1.0240000486373901, 0.0, 0.0, 0.0, 0.0, 0.0, 1.708636544485698E9, 0.0, 2024-02-22 13:15:44.485
94.0, 1342.8092091404833, 852.1810837034136, -2217.7905929237604, 344.1680333223194, 0.03200000151991844, 0.144000006839633, 1.0240000486373901, 0.0, 0.0, 0.0, 0.0, 0.0, 1.708636544485698E9, 0.0, 2024-02-22 13:15:44.485
95.0, 1542.8751572701149, 1032.5601984662935, -2040.2986809266731, 420.6115884166211, 0.03200000151991844, 0.144000006839633, 1.0240000486373901, 0.0, 0.0, 0.0, 0.0, 0.0, 1.708636544498953E9, 0.0, 2024-02-22 13:15:44.498
95.0, 1762.702736765612, 800.9725035601296, -1935.14391387254, 427.96049182955176, 0.03200000151991844, 0.144000006839633, 1.0240000486373901, 0.0, 0.0, 0.0, 0.0, 0.0, 1.708636544498953E9, 0.0, 2024-02-22 13:15:44.498
96.0, 1905.0825980287045, 937.3909642938524, -1693.293933487963, 351.9432853301987, 0.03200000151991844, 0.144000006839633, 1.0240000486373901, 0.0, 0.0, 0.0, 0.0, 0.0, 1.70863654450342E9, 0.0, 2024-02-22 13:15:44.503
96.0, 1854.760374174919, 845.0621841377579, -1515.9104785895906, 517.9312650635839, 0.03200000151991844, 0.144000006839633, 1.0240000486373901, 0.0, 0.0, 0.0, 0.0, 0.0, 1.70863654450342E9, 0.0, 2024-02-22 13:15:44.503
97.0, 2085.4598428416066, 622.977575019002, -1698.5840219752863, 655.8251163298264, 0.03200000151991844, 0.144000006839633, 1.0240000486373901, 0.0, 0.0, 0.0, 0.0, 0.0, 1.708636544512792E9, 0.0, 2024-02-22 13:15:44.512
97.0, 1874.3312706430443, 423.73814477957785, -1876.6032598661259, 601.413311874494, 0.03200000151991844, 0.144000006839633, 1.0240000486373901, 0.0, 0.0, 0.0, 0.0, 0.0, 1.708636544512792E9, 0.0, 2024-02-22 13:15:44.512
98.0, 1673.730516819749, 668.1649162336253, -1983.7663531964645, 584.5837620738894, 0.03200000151991844, 0.144000006839633, 1.0240000486373901, 0.0, 0.0, 0.0, 0.0, 0.0, 1.708636544529026E9, 0.0, 2024-02-22 13:15:44.529
98.0, 1528.0894627952948, 538.6727502178401, -2220.219657944981, 662.2801836533472, 0.03200000151991844, 0.144000006839633, 1.0240000486373901, 0.0, 0.0, 0.0, 0.0, 0.0, 1.708636544529026E9, 0.0, 2024-02-22 13:15:44.529
99.0, 1571.1712403348647, 619.4115804112516, -2393.616379490588, 509.3145355656743, 0.03200000151991844, 0.144000006839633, 1.0240000486373901, 0.0, 0.0, 0.0, 0.0, 0.0, 1.708636544534152E9, 0.0, 2024-02-22 13:15:44.534
99.0, 1337.7566043003462, 837.3860394787043, -2222.065298573114, 342.3504419438541, 0.03200000151991844, 0.144000006839633, 1.0240000486373901, 0.0, 0.0, 0.0, 0.0, 0.0, 1.708636544534152E9, 0.0, 2024-02-22 13:15:44.534
100.0, 1546.4168425281532, 1029.478520902805, -2033.6229595057666, 416.8567288611084, 0.03200000151991844, 0.144000006839633, 1.008000047877431, 0.0, 0.0, 0.0, 0.0, 0.0, 1.708636544544694E9, 0.0, 2024-02-22 13:15:44.544
100.0, 1733.067769516725, 1266.3787436960265, -1945.3388811517507, 415.607602275908, 0.03200000151991844, 0.144000006839633, 1.008000047877431, 0.0, 0.0, 0.0, 0.0, 0.0, 1.708636544544694E9, 0.0, 2024-02-22 13:15:44.544
0.0, -1065.6695327740163, -1053.1464777723886, -723.8613763237372, -649.5869632037356, 0.03200000151991844, 0.144000006839633, 1.008000047877431, 0.0, 0.0, 0.0, 0.0, 0.0, 1.708636544550687E9, 0.0, 2024-02-22 13:15:44.550
1.0, -1102.2663237904198, -1127.688293739222, -544.0320268543437, -471.5228465134278, 0.03200000151991844, 0.144000006839633, 1.008000047877431, 0.0, 0.0, 0.0, 0.0, 0.0, 1.708636544558007E9, 0.0, 2024-02-22 13:15:44.558
1.0, -897.6414376148023, -894.7486249990761, -736.4816687242128, -351.70393173303455, 0.03200000151991844, 0.144000006839633, 1.008000047877431, 0.0, 0.0, 0.0, 0.0, 0.0, 1.708636544558007E9, 0.0, 2024-02-22 13:15:44.558
2.0, -1102.169086391572, -1084.1184592554346, -906.5050005097874, -404.28692511003464, 0.03200000151991844, 0.144000006839633, 1.008000047877431, 0.0, 0.0, 0.0, 0.0, 0.0, 1.70863654459069E9, 0.0, 2024-02-22 13:15:44.590
2.0, -1291.2883473508991, -1307.4952038088813, -1010.5789364767261, -413.36740220244974, 0.03200000151991844, 0.144000006839633, 1.008000047877431, 0.0, 0.0, 0.0, 0.0, 0.0, 1.70863654459069E9, 0.0, 2024-02-22 13:15:44.590
3.0, -1447.1430681543425, -1455.30165990768, -1253.4760888488963, -338.46842578984797, 0.03200000151991844, 0.144000006839633, 1.008000047877431, 0.0, 0.0, 0.0, 0.0, 0.0, 1.708636544597671E9, 0.0, 2024-02-22 13:15:44.597
3.0, -1422.4802978965454, -1399.0479547241703, -1444.614895784296, -509.4566517639905, 0.03200000151991844, 0.144000006839633, 1.008000047877431, 0.0, 0.0, 0.0, 0.0, 0.0, 1.708636544597671E9, 0.0, 2024-02-22 13:15:44.597
4.0, -1627.3146184696816, -1639.0373348807916, -1264.8734339638613, -655.3538889354095, 0.03200000151991844, 0.144000006839633, 1.008000047877431, 0.0, 0.0, 0.0, 0.0, 0.0, 1.708636544602335E9, 0.0, 2024-02-22 13:15:44.602
4.0, -1423.9014598797075, -1444.5288780853152, -1071.666462352965, -577.7322653550655, 0.03200000151991844, 0.144000006839633, 1.008000047877431, 0.0, 0.0, 0.0, 0.0, 0.0, 1.708636544602335E9, 0.0, 2024-02-22 13:15:44.602
5.0, -1255.374088076409, -1235.3712331634015, -989.0071935323067, -593.9260321632028, 0.03200000151991844, 0.144000006839633, 1.008000047877431, 0.0, 0.0, 0.0, 0.0, 0.0, 1.708636544606444E9, 0.0, 2024-02-22 13:15:44.606
5.0, -1101.9615219440311, -1084.2175666042604, -746.4354124562815, -666.2482175063342, 0.03200000151991844, 0.144000006839633, 1.008000047877431, 0.0, 0.0, 0.0, 0.0, 0.0, 1.708636544606444E9, 0.0, 2024-02-22 13:15:44.606
6.0, -1115.2400367367081, -1140.0561428926885, -546.5340199247003, -482.42839478421956, 0.03200000151991844, 0.144000006839633, 1.008000047877431, 0.0, 0.0, 0.0, 0.0, 0.0, 1.708636544612793E9, 0.0, 2024-02-22 13:15:44.612
6.0, -920.7241001413204, -905.6092944703996, -745.3414917192422, -360.29822183120996, 0.03200000151991844, 0.144000006839633, 1.008000047877431, 0.0, 0.0, 0.0, 0.0, 0.0, 1.708636544612793E9, 0.0, 2024-02-22 13:15:44.612
7.0, -1124.6309255254455, -1090.4987285798416, -918.2034075711854, -415.0391374826431, 0.03200000151991844, 0.144000006839633, 1.008000047877431, 0.0, 0.0, 0.0, 0.0, 0.0, 1.708636544618306E9, 0.0, 2024-02-22 13:15:44.618
7.0, -1280.846546674613, -1296.5335570387542, -999.2171204113401, -416.62859496381134, 0.03200000151991844, 0.144000006839633, 1.008000047877431, 0.0, 0.0, 0.0, 0.0, 0.0, 1.708636544618306E9, 0.0, 2024-02-22 13:15:44.618
8.0, -1448.3473159400746, -1448.341706090141, -754.1339965150692, -340.2373984688893, 0.03200000151991844, 0.144000006839633, 1.008000047877431, 0.0, 0.0, 0.0, 0.0, 0.0, 1.708636544635146E9, 0.0, 2024-02-22 13:15:44.635
8.0, -1431.5869542886503, -1391.007169819437, -947.262430226896, -517.3291411707178, 0.03200000151991844, 0.144000006839633, 1.008000047877431, 0.0, 0.0, 0.0, 0.0, 0.0, 1.708636544635146E9, 0.0, 2024-02-22 13:15:44.635
9.0, -1611.9398897518404, -1609.1630140347406, -747.75559714064, -650.4920189930126, 0.03200000151991844, 0.144000006839633, 1.008000047877431, 0.0, 0.0, 0.0, 0.0, 0.0, 1.708636544641789E9, 0.0, 2024-02-22 13:15:44.641
9.0, -1391.5214060633443, -1405.8134337440133, -552.4056628551334, -562.6903877332807, 0.03200000151991844, 0.144000006839633, 1.008000047877431, 0.0, 0.0, 0.0, 0.0, 0.0, 1.708636544641789E9, 0.0, 2024-02-22 13:15:44.641
10.0, -1237.8750961837359, -1198.3836226016283, -480.36023010872304, -589.4718113159761, 0.03200000151991844, 0.144000006839633, 1.008000047877431, 0.0, 0.0, 0.0, 0.0, 0.0, 1.70863654464731E9, 0.0, 2024-02-22 13:15:44.647
10.0, -1075.9280783524737, -1044.2081168782897, -722.2158203432336, -652.9304337641224, 0.03200000151991844, 0.144000006839633, 1.008000047877431, 0.0, 0.0, 0.0, 0.0, 0.0, 1.70863654464731E9, 0.0, 2024-02-22 13:15:44.647
11.0, -1061.1068548280746, -1078.9237382169813, -505.4250396117568, -456.6567441895604, 0.03200000151991844, 0.144000006839633, 1.008000047877431, 0.0, 0.0, 0.0, 0.0, 0.0, 1.708636544662811E9, 0.0, 2024-02-22 13:15:44.662
11.0, -885.8327035047114, -861.2989597953856, -715.0483020781539, -342.9488259367645, 0.03200000151991844, 0.144000006839633, 1.008000047877431, 0.0, 0.0, 0.0, 0.0, 0.0, 1.708636544662811E9, 0.0, 2024-02-22 13:15:44.662
12.0, -1090.2182360831648, -1055.9083938896656, -895.6368512385525, -402.7049474287778, 0.03200000151991844, 0.144000006839633, 1.008000047877431, 0.0, 0.0, 0.0, 0.0, 0.0, 1.708636544668783E9, 0.0, 2024-02-22 13:15:44.668
12.0, -1231.5453155087307, -1244.3544728569686, -977.4209834695794, -387.49477430898696, 0.03200000151991844, 0.144000006839633, 1.008000047877431, 0.0, 0.0, 0.0, 0.0, 0.0, 1.708636544668783E9, 0.0, 2024-02-22 13:15:44.668
13.0, -1392.695734649431, -1387.1195438154973, -1214.1697403145954, -309.94046892784536, 0.03200000151991844, 0.144000006839633, 1.008000047877431, 0.0, 0.0, 0.0, 0.0, 0.0, 1.7086365446777E9, 0.0, 2024-02-22 13:15:44.677
13.0, -1394.8760963235982, -1355.3135646423325, -1426.3267850009724, -499.40754058305174, 0.03200000151991844, 0.144000006839633, 1.008000047877431, 0.0, 0.0, 0.0, 0.0, 0.0, 1.7086365446777E9, 0.0, 2024-02-22 13:15:44.677
14.0, -1573.0411903127097, -1569.7669079015031, -1222.7434609630145, -625.6478635873646, 0.03200000151991844, 0.144000006839633, 1.008000047877431, 0.0, 0.0, 0.0, 0.0, 0.0, 1.708636544694008E9, 0.0, 2024-02-22 13:15:44.694
14.0, -1345.7936493051238, -1357.695880914107, -1023.8032227200456, -538.6914497176185, 0.03200000151991844, 0.144000006839633, 1.008000047877431, 0.0, 0.0, 0.0, 0.0, 0.0, 1.708636544694008E9, 0.0, 2024-02-22 13:15:44.694
15.0, -1204.1561581832357, -1167.2377357706428, -963.8601062302478, -575.3649086831138, 0.03200000151991844, 0.144000006839633, 1.008000047877431, 0.0, 0.0, 0.0, 0.0, 0.0, 1.708636544700645E9, 0.0, 2024-02-22 13:15:44.700
15.0, -1044.6475551230833, -1028.0293096699752, -723.9099950231612, -646.7558589372784, 0.03200000151991844, 0.144000006839633, 1.008000047877431, 0.0, 0.0, 0.0, 0.0, 0.0, 1.708636544700645E9, 0.0, 2024-02-22 13:15:44.700
16.0, -1030.6528494888917, -1053.5859160171822, -504.41152672376484, -443.1407457496971, 0.03200000151991844, 0.144000006839633, 1.008000047877431, 0.0, 0.0, 0.0, 0.0, 0.0, 1.708636544708017E9, 0.0, 2024-02-22 13:15:44.708
16.0, -865.7157816430554, -846.6348120691255, -720.7292101108469, -333.9730660431087, 0.03200000151991844, 0.144000006839633, 1.008000047877431, 0.0, 0.0, 0.0, 0.0, 0.0, 1.708636544708017E9, 0.0, 2024-02-22 13:15:44.708
17.0, -1097.1482707010582, -1077.3193211359903, -919.1683017597534, -403.72220021672547, 0.03200000151991844, 0.144000006839633, 1.008000047877431, 0.0, 0.0, 0.0, 0.0, 0.0, 1.708636544723432E9, 0.0, 2024-02-22 13:15:44.723
17.0, -1213.993965016678, -1245.8242535395548, -980.2034690366127, -369.9546435168013, 0.03200000151991844, 0.144000006839633, 1.008000047877431, 0.0, 0.0, 0.0, 0.0, 0.0, 1.708636544723432E9, 0.0, 2024-02-22 13:15:44.723
18.0, -1395.2800055188127, -1401.9519870397635, -742.6749430508353, -315.2660864647478, 0.03200000151991844, 0.144000006839633, 1.008000047877431, 0.0, 0.0, 0.0, 0.0, 0.0, 1.708636544731687E9, 0.0, 2024-02-22 13:15:44.731
18.0, -1424.9261924675666, -1398.7151036281139, -965.834773406852, -515.9341584872454, 0.03200000151991844, 0.144000006839633, 1.008000047877431, 0.0, 0.0, 0.0, 0.0, 0.0, 1.708636544731687E9, 0.0, 2024-02-22 13:15:44.731
19.0, -1596.5502014341764, -1609.5669232299551, -763.5940734529868, -651.8757819766179, 0.03200000151991844, 0.144000006839633, 1.008000047877431, 0.0, 0.0, 0.0, 0.0, 0.0, 1.708636544737661E9, 0.0, 2024-02-22 13:15:44.737
19.0, -1364.2949343859218, -1386.8633606685326, -555.8575905142352, -554.8814766258001, 0.03200000151991844, 0.144000006839633, 1.008000047877431, 0.0, 0.0, 0.0, 0.0, 0.0, 1.708636544737661E9, 0.0, 2024-02-22 13:15:44.737
20.0, -1242.6322489273734, -1216.899867282249, -501.07179606333375, -605.1345123304054, 0.03200000151991844, 0.144000006839633, 1.008000047877431, 0.0, 0.0, 0.0, 0.0, 0.0, 1.708636544753422E9, 0.0, 2024-02-22 13:15:44.753
20.0, -1086.1716643311083, -1078.951787466649, -267.49073448078707, -681.0806607306004, 0.03200000151991844, 0.144000006839633, 1.008000047877431, 0.0, 0.0, 0.0, 0.0, 0.0, 1.708636544753422E9, 0.0, 2024-02-22 13:15:44.753
21.0, -1050.8333496497944, -1082.727216471918, -27.97632161853835, -465.70730208233, 0.03200000151991844, 0.144000006839633, 1.008000047877431, 0.0, 0.0, 0.0, 0.0, 0.0, 1.708636544762009E9, 0.0, 2024-02-22 13:15:44.762
21.0, -907.3707873495296, -893.1292483182624, -256.24672526400536, -371.8507727943361, 0.03200000151991844, 0.144000006839633, 1.008000047877431, 0.0, 0.0, 0.0, 0.0, 0.0, 1.708636544762009E9, 0.0, 2024-02-22 13:15:44.762
22.0, -1150.3820066703483, -1136.4097404358909, -468.28035325184464, -447.8156206943095, 0.03200000151991844, 0.144000006839633, 1.008000047877431, 0.0, 0.0, 0.0, 0.0, 0.0, 1.708636544767683E9, 0.0, 2024-02-22 13:15:44.767
22.0, -1265.9224759014323, -1287.2922642482445, -519.1878714486957, -418.8613152373582, 0.03200000151991844, 0.144000006839633, 1.008000047877431, 0.0, 0.0, 0.0, 0.0, 0.0, 1.708636544767683E9, 0.0, 2024-02-22 13:15:44.767
23.0, -1435.4876699424349, -1439.0517946002074, -761.4604605282657, -343.30037653259933, 0.03200000151991844, 0.144000006839633, 1.008000047877431, 0.0, 0.0, 0.0, 0.0, 0.0, 1.708636544783251E9, 0.0, 2024-02-22 13:15:44.783
23.0, -1474.4761269805022, -1450.6679238625802, -996.6440692418255, -553.3069787444547, 0.03200000151991844, 0.144000006839633, 1.008000047877431, 0.0, 0.0, 0.0, 0.0, 0.0, 1.708636544783251E9, 0.0, 2024-02-22 13:15:44.783
24.0, -1622.7594203236513, -1645.4232140551321, -787.013326975517, -670.8632540516555, 0.03200000151991844, 0.144000006839633, 1.008000047877431, 0.0, 0.0, 0.0, 0.0, 0.0, 1.708636544786996E9, 0.0, 2024-02-22 13:15:44.786
24.0, -1387.2504403139465, -1408.1789204659872, -562.6754281334579, -576.9281868645921, 0.03200000151991844, 0.144000006839633, 1.008000047877431, 0.0, 0.0, 0.0, 0.0, 0.0, 1.708636544786996E9, 0.0, 2024-02-22 13:15:44.786
25.0, -1287.720482793171, -1256.9111869581975, -525.3138275761157, -634.3094718847424, 0.03200000151991844, 0.144000006839633, 1.008000047877431, 0.0, 0.0, 0.0, 0.0, 0.0, 1.708636544799012E9, 0.0, 2024-02-22 13:15:44.799
25.0, -1107.451695078984, -1100.4244230622426, -764.6936040399596, -694.8322728676721, 0.03200000151991844, 0.144000006839633, 1.008000047877431, 0.0, 0.0, 0.0, 0.0, 0.0, 1.708636544799012E9, 0.0, 2024-02-22 13:15:44.799
26.0, -1052.7967971265316, -1082.5177820743993, -1004.875589044299, -463.186609512195, 0.03200000151991844, 0.144000006839633, 1.008000047877431, 0.0, 0.0, 0.0, 0.0, 0.0, 1.708636544830796E9, 0.0, 2024-02-22 13:15:44.830
26.0, -926.2198831262067, -902.299483009614, -1244.5975663540885, -378.5040548155084, 0.03200000151991844, 0.144000006839633, 1.008000047877431, 0.0, 0.0, 0.0, 0.0, 0.0, 1.708636544830796E9, 0.0, 2024-02-22 13:15:44.830
27.0, -1143.8072625482455, -1124.1279089814052, -1441.8361501172185, -443.9149050405249, 0.03200000151991844, 0.144000006839633, 1.008000047877431, 0.0, 0.0, 0.0, 0.0, 0.0, 1.708636544836682E9, 0.0, 2024-02-22 13:15:44.836
27.0, -1232.2745960000902, -1254.7252154340968, -1474.9043455254287, -397.7084410879761, 0.03200000151991844, 0.144000006839633, 1.008000047877431, 0.0, 0.0, 0.0, 0.0, 0.0, 1.708636544836682E9, 0.0, 2024-02-22 13:15:44.836
28.0, -1405.7255460950546, -1402.9542802278884, -1715.980166619178, -328.0079256137833, 0.03200000151991844, 0.144000006839633, 1.008000047877431, 0.0, 0.0, 0.0, 0.0, 0.0, 1.708636544843683E9, 0.0, 2024-02-22 13:15:44.843
28.0, -1452.5677930400707, -1417.902660350781, -1954.683021191042, -540.8269325923175, 0.03200000151991844, 0.144000006839633, 1.008000047877431, 0.0, 0.0, 0.0, 0.0, 0.0, 1.708636544843683E9, 0.0, 2024-02-22 13:15:44.843
29.0, -1568.9684392609634, -1579.3130025384016, -1718.5700473384932, -636.3028385611251, 0.03200000151991844, 0.144000006839633, 1.008000047877431, 0.0, 0.0, 0.0, 0.0, 0.0, 1.708636544848661E9, 0.0, 2024-02-22 13:15:44.848
29.0, -1812.9800818199292, -1335.5725027262233, -1491.3187664309517, -529.26690182928, 0.03200000151991844, 0.144000006839633, 1.008000047877431, 0.0, 0.0, 0.0, 0.0, 0.0, 1.708636544848661E9, 0.0, 2024-02-22 13:15:44.848
30.0, -1728.4546029213816, -1199.6944575360976, -1467.5255229128525, -600.4446777859703, 0.03200000151991844, 0.144000006839633, 1.008000047877431, 0.0, 0.0, 0.0, 0.0, 0.0, 1.708636544854416E9, 0.0, 2024-02-22 13:15:44.854
30.0, -1537.542059933301, -1039.3705562856048, -1711.625053120777, -650.7425922900438, 0.03200000151991844, 0.144000006839633, 1.008000047877431, 0.0, 0.0, 0.0, 0.0, 0.0, 1.708636544854416E9, 0.0, 2024-02-22 13:15:44.854
31.0, -1471.450547916349, -1003.2767818132415, -1937.5281000942923, -414.3883948903531, 0.03200000151991844, 0.144000006839633, 1.008000047877431, 0.0, 0.0, 0.0, 0.0, 0.0, 1.708636544859124E9, 0.0, 2024-02-22 13:15:44.859
31.0, -1371.1613907045685, -850.3447928251699, -1700.650316700805, -349.63202715758234, 0.03200000151991844, 0.144000006839633, 1.008000047877431, 0.0, 0.0, 0.0, 0.0, 0.0, 1.708636544859124E9, 0.0, 2024-02-22 13:15:44.859
32.0, -1594.1491856626235, -1077.8877859292552, -1907.1900316537358, -415.932973572053, 0.03200000151991844, 0.144000006839633, 1.008000047877431, 0.0, 0.0, 0.0, 0.0, 0.0, 1.708636544873414E9, 0.0, 2024-02-22 13:15:44.873
32.0, -1662.4098396538757, -1192.1005906760693, -1921.8504394800402, -351.52067663520575, 0.03200000151991844, 0.144000006839633, 1.008000047877431, 0.0, 0.0, 0.0, 0.0, 0.0, 1.708636544873414E9, 0.0, 2024-02-22 13:15:44.873
33.0, -1857.3203356945887, -1355.0686011952348, -1688.8210131409578, -296.9517963817343, 0.03200000151991844, 0.144000006839633, 1.008000047877431, 0.0, 0.0, 0.0, 0.0, 0.0, 1.708636544879678E9, 0.0, 2024-02-22 13:15:44.879
33.0, -1921.612955832854, -1393.4250151407905, -1456.5002978434786, -522.6472789077088, 0.03200000151991844, 0.144000006839633, 1.008000047877431, 0.0, 0.0, 0.0, 0.0, 0.0, 1.708636544879678E9, 0.0, 2024-02-22 13:15:44.879
34.0, -2024.6958183115348, -1544.9620214453898, -1700.9251993475482, -611.66437765304, 0.03200000151991844, 0.144000006839633, 1.008000047877431, 0.0, 0.0, 0.0, 0.0, 0.0, 1.708636544904685E9, 0.0, 2024-02-22 13:15:44.904
34.0, -1789.1793585019186, -1316.098843656946, -1485.488262400031, -515.7359437895939, 0.03200000151991844, 0.144000006839633, 1.008000047877431, 0.0, 0.0, 0.0, 0.0, 0.0, 1.708636544904685E9, 0.0, 2024-02-22 13:15:44.904
35.0, -1741.4058764679357, -1215.0766660538502, -1484.7103632092476, -603.4926962498575, 0.03200000151991844, 0.144000006839633, 1.008000047877431, 0.0, 0.0, 0.0, 0.0, 0.0, 1.708636544909448E9, 0.0, 2024-02-22 13:15:44.909
35.0, -1533.7423215783201, -1037.3734497092664, -1713.9587506931275, -645.4132348531857, 0.03200000151991844, 0.144000006839633, 1.008000047877431, 0.0, 0.0, 0.0, 0.0, 0.0, 1.708636544909448E9, 0.0, 2024-02-22 13:15:44.909
36.0, -1455.2156422086991, -994.4805371174589, -1936.5145872063003, -405.1845010994002, 0.03200000151991844, 0.144000006839633, 1.008000047877431, 0.0, 0.0, 0.0, 0.0, 0.0, 1.708636544913005E9, 0.0, 2024-02-22 13:15:44.913
36.0, -1366.0676469649188, -848.7665550438687, -1705.5533255427144, -345.18528611026704, 0.03200000151991844, 0.144000006839633, 1.008000047877431, 0.0, 0.0, 0.0, 0.0, 0.0, 1.708636544913005E9, 0.0, 2024-02-22 13:15:44.913
37.0, -1598.1172195156105, -1090.73434227705, -1915.1373190595768, -417.8178831497207, 0.03200000151991844, 0.144000006839633, 1.008000047877431, 0.0, 0.0, 0.0, 0.0, 0.0, 1.708636544917979E9, 0.0, 2024-02-22 13:15:44.917
37.0, -1643.1418750821613, -1185.5408061537892, -1921.2183963875286, -336.6059556119144, 0.03200000151991844, 0.144000006839633, 1.008000047877431, 0.0, 0.0, 0.0, 0.0, 0.0, 1.708636544917979E9, 0.0, 2024-02-22 13:15:44.917
38.0, -1837.7083003269508, -1343.0485627376474, -1684.6248453906737, -290.5790068572387, 0.03200000151991844, 0.144000006839633, 1.008000047877431, 0.0, 0.0, 0.0, 0.0, 0.0, 1.708636544933301E9, 0.0, 2024-02-22 13:15:44.933
38.0, -1927.2976037655026, -1403.5938031203113, -1465.9435452315956, -520.7885486297309, 0.03200000151991844, 0.144000006839633, 1.008000047877431, 0.0, 0.0, 0.0, 0.0, 0.0, 1.708636544933301E9, 0.0, 2024-02-22 13:15:44.933
39.0, -2005.468992639333, -1538.7463077190332, -1698.4755648765713, -594.8984061516821, 0.03200000151991844, 0.144000006839633, 1.008000047877431, 0.0, 0.0, 0.0, 0.0, 0.0, 1.708636544938974E9, 0.0, 2024-02-22 13:15:44.938
39.0, -1760.9468537364155, -1778.9769114227965, -1472.4584509544075, -500.21535897348076, 0.03200000151991844, 0.144000006839633, 1.008000047877431, 0.0, 0.0, 0.0, 0.0, 0.0, 1.708636544938974E9, 0.0, 2024-02-22 13:15:44.938
40.0, -1733.3725713631138, -1702.6492932271212, -1482.0325948409736, -596.166232236661, 0.03200000151991844, 0.144000006839633, 1.008000047877431, 0.0, 0.0, 0.0, 0.0, 0.0, 1.708636544947675E9, 0.0, 2024-02-22 13:15:44.947
40.0, -1533.1327178855427, -1526.651471262332, -1718.0689007444307, -636.1195834632963, 0.03200000151991844, 0.144000006839633, 1.008000047877431, 0.0, 0.0, 0.0, 0.0, 0.0, 1.708636544947675E9, 0.0, 2024-02-22 13:15:44.947
41.0, -1436.329147432465, -1464.673849196639, -1929.9622824839316, -393.01486664358526, 0.03200000151991844, 0.144000006839633, 1.008000047877431, 0.0, 0.0, 0.0, 0.0, 0.0, 1.708636544962761E9, 0.0, 2024-02-22 13:15:44.962
41.0, -1365.559020570945, -1341.0065773618408, -1709.1847683996893, -344.4148667193949, 0.03200000151991844, 0.144000006839633, 1.008000047877431, 0.0, 0.0, 0.0, 0.0, 0.0, 1.708636544962761E9, 0.0, 2024-02-22 13:15:44.962
42.0, -1597.2084238263778, -1582.4358190014027, -1922.1608511763625, -411.06736372970045, 0.03200000151991844, 0.144000006839633, 1.008000047877431, 0.0, 0.0, 0.0, 0.0, 0.0, 1.708636544968008E9, 0.0, 2024-02-22 13:15:44.968
42.0, -1638.3510632389225, -1669.5530485692434, -1926.9516630196013, -336.3441626150161, 0.03200000151991844, 0.144000006839633, 1.008000047877431, 0.0, 0.0, 0.0, 0.0, 0.0, 1.708636544968008E9, 0.0, 2024-02-22 13:15:44.968
43.0, -1852.6679001497105, -1849.2907704897225, -1707.041805725079, -304.6298109907657, 0.03200000151991844, 0.144000006839633, 1.008000047877431, 0.0, 0.0, 0.0, 0.0, 0.0, 1.708636544977663E9, 0.0, 2024-02-22 13:15:44.977
43.0, -1967.58754598815, -1937.6459069428965, -1502.6581430966035, -64.10001529054716, 0.03200000151991844, 0.144000006839633, 1.008000047877431, 0.0, 0.0, 0.0, 0.0, 0.0, 1.708636544977663E9, 0.0, 2024-02-22 13:15:44.977
44.0, -2034.3522399971262, -2056.3241522368044, -1729.6625906070694, -130.84600979974493, 0.03200000151991844, 0.144000006839633, 1.008000047877431, 0.0, 0.0, 0.0, 0.0, 0.0, 1.708636544992652E9, 0.0, 2024-02-22 13:15:44.992
44.0, -2275.7908313865773, -1813.7093623112887, -1496.150717173703, -28.084778717253357, 0.03200000151991844, 0.144000006839633, 1.008000047877431, 0.0, 0.0, 0.0, 0.0, 0.0, 1.708636544992652E9, 0.0, 2024-02-22 13:15:44.992
45.0, -2280.4058679318987, -1761.182467433624, -1528.3512557921931, -139.55623679654673, 0.03200000151991844, 0.144000006839633, 1.008000047877431, 0.0, 0.0, 0.0, 0.0, 0.0, 1.708636544996438E9, 0.0, 2024-02-22 13:15:44.996
45.0, -2058.598011409864, -1575.6591202816926, -1745.8339180154726, -182.64736408600584, 0.03200000151991844, 0.144000006839633, 1.008000047877431, 0.0, 0.0, 0.0, 0.0, 0.0, 1.708636544996438E9, 0.0, 2024-02-22 13:15:44.996
46.0, -1949.1199200069532, -1496.6387741179205, -1947.9325017710216, -414.7549050860107, 0.03200000151991844, 0.144000006839633, 1.008000047877431, 0.0, 0.0, 0.0, 0.0, 0.0, 1.708636545006866E9, 0.0, 2024-02-22 13:15:45.006
46.0, -1914.1929943207651, -1411.0698631317355, -1756.2027906426229, -389.6302571836859, 0.03200000151991844, 0.144000006839633, 1.008000047877431, 0.0, 0.0, 0.0, 0.0, 0.0, 1.708636545006866E9, 0.0, 2024-02-22 13:15:45.006
47.0, -2146.8147715646774, -1644.8285699621774, -1962.4769726986997, -449.7790681710467, 0.03200000151991844, 0.144000006839633, 1.008000047877431, 0.0, 0.0, 0.0, 0.0, 0.0, 1.708636545022661E9, 0.0, 2024-02-22 13:15:45.022
47.0, -2140.3634441411123, -1684.8941181874834, -1930.175456781406, -348.7232314683497, 0.03200000151991844, 0.144000006839633, 1.008000047877431, 0.0, 0.0, 0.0, 0.0, 0.0, 1.708636545022661E9, 0.0, 2024-02-22 13:15:45.022
48.0, -2364.1534476396628, -1876.5583810666576, -1715.8156110211276, -319.9596609091386, 0.03200000151991844, 0.144000006839633, 1.008000047877431, 0.0, 0.0, 0.0, 0.0, 0.0, 1.708636545029639E9, 0.0, 2024-02-22 13:15:45.029
48.0, -2480.778487857897, -1958.8399199917912, -1514.266792559065, -78.22187752323225, 0.03200000151991844, 0.144000006839633, 1.008000047877431, 0.0, 0.0, 0.0, 0.0, 0.0, 1.708636545029639E9, 0.0, 2024-02-22 13:15:45.029
49.0, -2515.5558175458573, -2051.4996812939644, -1715.9633370693773, -121.54861850989982, 0.03200000151991844, 0.144000006839633, 1.008000047877431, 0.0, 0.0, 0.0, 0.0, 0.0, 1.708636545036994E9, 0.0, 2024-02-22 13:15:45.036
49.0, -2758.120118821971, -2288.1175416405313, -1486.9917021822184, -28.937475907150656, 0.03200000151991844, 0.144000006839633, 1.008000047877431, 0.0, 0.0, 0.0, 0.0, 0.0, 1.708636545036994E9, 0.0, 2024-02-22 13:15:45.036
50.0, -2778.4838740807027, -2254.9221896338277, -1527.7416520994157, -144.30216984031722, 0.03200000151991844, 0.144000006839633, 1.008000047877431, 0.0, 0.0, 0.0, 0.0, 0.0, 1.708636545055666E9, 0.0, 2024-02-22 13:15:45.055
50.0, -3022.7255204869434, -2047.101558946073, -1733.5221673613414, -170.1710578338243, 0.03200000151991844, 0.144000006839633, 1.008000047877431, 0.0, 0.0, 0.0, 0.0, 0.0, 1.708636545055666E9, 0.0, 2024-02-22 13:15:45.055
51.0, -2893.7999493144453, -1950.0474151959643, -1919.935610702727, -389.3796838866547, 0.03200000151991844, 0.144000006839633, 1.008000047877431, 0.0, 0.0, 0.0, 0.0, 0.0, 1.708636545059763E9, 0.0, 2024-02-22 13:15:45.059
51.0, -2873.611969353631, -1869.8677000459284, -1734.4515325003304, -376.82483973540366, 0.03200000151991844, 0.144000006839633, 1.008000047877431, 0.0, 0.0, 0.0, 0.0, 0.0, 1.708636545059763E9, 0.0, 2024-02-22 13:15:45.059
52.0, -3108.4739466710016, -2112.1608585752547, -1942.5096468352713, -444.93963762838393, 0.03200000151991844, 0.144000006839633, 1.008000047877431, 0.0, 0.0, 0.0, 0.0, 0.0, 1.708636545070651E9, 0.0, 2024-02-22 13:15:45.070
52.0, -3088.8170325038955, -2145.7040212778375, -1905.8436676696874, -331.1494415765628, 0.03200000151991844, 0.144000006839633, 1.008000047877431, 0.0, 0.0, 0.0, 0.0, 0.0, 1.708636545070651E9, 0.0, 2024-02-22 13:15:45.070
53.0, -2845.7945934832096, -2348.1541556292213, -1699.4161497154273, -314.0842780787498, 0.03200000151991844, 0.144000006839633, 1.008000047877431, 0.0, 0.0, 0.0, 0.0, 0.0, 1.70863654508338E9, 0.0, 2024-02-22 13:15:45.083
53.0, -2968.769983826205, -2452.1532935970463, -1507.5274928389117, -80.4620775966905, 0.03200000151991844, 0.144000006839633, 1.008000047877431, 0.0, 0.0, 0.0, 0.0, 0.0, 1.70863654508338E9, 0.0, 2024-02-22 13:15:45.083
54.0, -2998.4573096744716, -2524.7335320371203, -1701.7404975378886, -115.39274318283424, 0.03200000151991844, 0.144000006839633, 1.008000047877431, 0.0, 0.0, 0.0, 0.0, 0.0, 1.708636545089266E9, 0.0, 2024-02-22 13:15:45.089
54.0, -3234.031737933401, -2766.1983027262613, -1470.4763039778918, -21.47637549554929, 0.03200000151991844, 0.144000006839633, 1.008000047877431, 0.0, 0.0, 0.0, 0.0, 0.0, 1.708636545089266E9, 0.0, 2024-02-22 13:15:45.089
55.0, -3264.051914877724, -2745.699911069125, -1517.4831065209582, -150.99659076100215, 0.03200000151991844, 0.144000006839633, 1.008000047877431, 0.0, 0.0, 0.0, 0.0, 0.0, 1.708636545100664E9, 0.0, 2024-02-22 13:15:45.100
55.0, -3028.230653221719, -2536.955525092315, -1735.1602435419336, -171.70441681565717, 0.03200000151991844, 0.144000006839633, 1.008000047877431, 0.0, 0.0, 0.0, 0.0, 0.0, 1.708636545100664E9, 0.0, 2024-02-22 13:15:45.100
56.0, -2885.8377023087814, -2427.0510850944556, -1906.7636830587871, -382.12427797261626, 0.03200000151991844, 0.144000006839633, 1.008000047877431, 0.0, 0.0, 0.0, 0.0, 0.0, 1.708636545114767E9, 0.0, 2024-02-22 13:15:45.114
56.0, -2878.933846990578, -2361.958126365673, -1728.9389199656434, -377.09037263225764, 0.03200000151991844, 0.144000006839633, 1.008000047877431, 0.0, 0.0, 0.0, 0.0, 0.0, 1.708636545114767E9, 0.0, 2024-02-22 13:15:45.114
57.0, -3123.15679389704, -2123.3319397429004, -1951.8855760241859, -452.5204148385674, 0.03200000151991844, 0.144000006839633, 1.008000047877431, 0.0, 0.0, 0.0, 0.0, 0.0, 1.708636545119846E9, 0.0, 2024-02-22 13:15:45.119
57.0, -3077.825466534123, -2134.4843214107677, -1895.5888619911857, -326.1529352357611, 0.03200000151991844, 0.144000006839633, 1.008000047877431, 0.0, 0.0, 0.0, 0.0, 0.0, 1.708636545119846E9, 0.0, 2024-02-22 13:15:45.119
58.0, -2842.5408805217594, -2342.1478763003834, -1685.5523405796848, -311.548625908792, 0.03200000151991844, 0.144000006839633, 1.008000047877431, 0.0, 0.0, 0.0, 0.0, 0.0, 1.70863654512832E9, 0.0, 2024-02-22 13:15:45.128
58.0, -2985.498556328006, -2461.3758868877776, -1514.928754851222, -88.34952660324052, 0.03200000151991844, 0.144000006839633, 1.008000047877431, 0.0, 0.0, 0.0, 0.0, 0.0, 1.70863654512832E9, 0.0, 2024-02-22 13:15:45.128
59.0, -2994.425697522238, -2524.4306001407094, -1697.525630287826, -115.35908408323303, 0.03200000151991844, 0.144000006839633, 1.008000047877431, 0.0, 0.0, 0.0, 0.0, 0.0, 1.708636545142648E9, 0.0, 2024-02-22 13:15:45.142
59.0, -3220.272645996418, -2747.076194252819, -1458.9873313140124, -12.063047307077795, 0.03200000151991844, 0.144000006839633, 1.008000047877431, 0.0, 0.0, 0.0, 0.0, 0.0, 1.708636545142648E9, 0.0, 2024-02-22 13:15:45.142
60.0, -3283.70882904483, -2753.9202111717314, -1529.9033142738044, -162.36962652625516, 0.03200000151991844, 0.144000006839633, 1.008000047877431, 0.0, 0.0, 0.0, 0.0, 0.0, 1.708636545148656E9, 0.0, 2024-02-22 13:15:45.148
60.0, -3528.0364931500517, -2541.866013734136, -1733.5670461608097, -178.2567215380259, 0.03200000151991844, 0.144000006839633, 1.008000047877431, 0.0, 0.0, 0.0, 0.0, 0.0, 1.708636545148656E9, 0.0, 2024-02-22 13:15:45.148
61.0, -3357.437216771301, -2407.2744941287674, -1897.260597271379, -378.7321887128055, 0.03200000151991844, 0.144000006839633, 1.008000047877431, 0.0, 0.0, 0.0, 0.0, 0.0, 1.708636545157749E9, 0.0, 2024-02-22 13:15:45.157
61.0, -3381.1874514399096, -2370.5000578644685, -1737.4920711643063, -387.37322756042704, 0.03200000151991844, 0.144000006839633, 1.008000047877431, 0.0, 0.0, 0.0, 0.0, 0.0, 1.708636545157749E9, 0.0, 2024-02-22 13:15:45.157
62.0, -3624.456723857671, -2138.8861836586148, -1967.211686042603, -465.4548588353209, 0.03200000151991844, 0.144000006839633, 1.008000047877431, 0.0, 0.0, 0.0, 0.0, 0.0, 1.708636545173055E9, 0.0, 2024-02-22 13:15:45.173
62.0, -3554.7786477832124, -2124.917657324113, -1895.042836597655, -320.0176293584518, 0.03200000151991844, 0.144000006839633, 1.008000047877431, 0.0, 0.0, 0.0, 0.0, 0.0, 1.708636545173055E9, 0.0, 2024-02-22 13:15:45.173
63.0, -3331.252307231538, -2346.7030744464137, -1696.4915479500778, -321.1078101955354, 0.03200000151991844, 0.144000006839633, 1.008000047877431, 0.0, 0.0, 0.0, 0.0, 0.0, 1.708636545178856E9, 0.0, 2024-02-22 13:15:45.178
63.0, -3501.137262718752, -2485.2065294054337, -1534.0172042250633, -101.51397444726899, 0.03200000151991844, 0.144000006839633, 1.008000047877431, 0.0, 0.0, 0.0, 0.0, 0.0, 1.708636545178856E9, 0.0, 2024-02-22 13:15:45.178
64.0, -3481.62433469994, -2531.3307155589573, -1701.8302551368251, -111.07689863396809, 0.03200000151991844, 0.144000006839633, 1.008000047877431, 0.0, 0.0, 0.0, 0.0, 0.0, 1.708636545188318E9, 0.0, 2024-02-22 13:15:45.188
64.0, -3710.953130032867, -2750.4832431124523, -1468.9092858964577, -21.446456295903772, 0.03200000151991844, 0.144000006839633, 1.008000047877431, 0.0, 0.0, 0.0, 0.0, 0.0, 1.708636545188318E9, 0.0, 2024-02-22 13:15:45.188
65.0, -3787.7856347225606, -2776.8083989005536, -1547.4845839655027, -175.59391276957467, 0.03200000151991844, 0.144000006839633, 1.008000047877431, 0.0, 0.0, 0.0, 0.0, 0.0, 1.708636545203361E9, 0.0, 2024-02-22 13:15:45.203
65.0, -4010.541555883363, -2549.244836346712, -1740.6653762767091, -182.75956108467653, 0.03200000151991844, 0.144000006839633, 1.008000047877431, 0.0, 0.0, 0.0, 0.0, 0.0, 1.708636545203361E9, 0.0, 2024-02-22 13:15:45.203
66.0, -3837.5150844333693, -2403.7627280703746, -1891.942459534388, -368.19689053762704, 0.03200000151991844, 0.144000006839633, 1.008000047877431, 0.0, 0.0, 0.0, 0.0, 0.0, 1.708636545207754E9, 0.0, 2024-02-22 13:15:45.207
66.0, -3876.172560325358, -2378.806375666056, -1741.9275925117545, -390.6867789211683, 0.03200000151991844, 0.144000006839633, 1.008000047877431, 0.0, 0.0, 0.0, 0.0, 0.0, 1.708636545207754E9, 0.0, 2024-02-22 13:15:45.207
67.0, -4096.901455710176, -2611.173839712981, -1957.5926633565687, -453.40116127813235, 0.03200000151991844, 0.144000006839633, 1.008000047877431, 0.0, 0.0, 0.0, 0.0, 0.0, 1.708636545218374E9, 0.0, 2024-02-22 13:15:45.218
67.0, -4016.280432365369, -2585.667722015176, -1877.5513245048933, -302.36530156759545, 0.03200000151991844, 0.144000006839633, 1.008000047877431, 0.0, 0.0, 0.0, 0.0, 0.0, 1.708636545218374E9, 0.0, 2024-02-22 13:15:45.218
68.0, -3808.1587397311814, -2822.6745319571346, -1693.5370269850828, -309.2149283364415, 0.03200000151991844, 0.144000006839633, 1.008000047877431, 0.0, 0.0, 0.0, 0.0, 0.0, 1.708636545233659E9, 0.0, 2024-02-22 13:15:45.233
68.0, -3985.729189627338, -2966.5858822520822, -1528.691586688161, -96.73812220385298, 0.03200000151991844, 0.144000006839633, 1.008000047877431, 0.0, 0.0, 0.0, 0.0, 0.0, 1.708636545233659E9, 0.0, 2024-02-22 13:15:45.233
69.0, -3938.2642493396997, -2984.294308542274, -1675.1460689529777, -89.27515184227377, 0.03200000151991844, 0.144000006839633, 1.008000047877431, 0.0, 0.0, 0.0, 0.0, 0.0, 1.708636545239297E9, 0.0, 2024-02-22 13:15:45.239
69.0, -4174.687634888571, -3203.9741619895212, -1444.0875698905438, 0.160815698094666, 0.03200000151991844, 0.144000006839633, 1.008000047877431, 0.0, 0.0, 0.0, 0.0, 0.0, 1.708636545239297E9, 0.0, 2024-02-22 13:15:45.239
70.0, -4269.265964868013, -3252.6265205130912, -1537.6187278823927, -170.5581374792382, 0.03200000151991844, 0.144000006839633, 1.008000047877431, 0.0, 0.0, 0.0, 0.0, 0.0, 1.708636545246861E9, 0.0, 2024-02-22 13:15:45.246
70.0, -4478.782640185673, -3495.5853812345304, -1716.5617210622877, -155.0880413125269, 0.03200000151991844, 0.144000006839633, 1.008000047877431, 0.0, 0.0, 0.0, 0.0, 0.0, 1.708636545246861E9, 0.0, 2024-02-22 13:15:45.246
